X-Data [Hz]	Piezo (M - Filtered) [mV]	Phase [Deg]	Piezo (M - Filtered) [mV]	Phase [Deg]	
	002: [07-09-24 14:35]		003: [07-09-24 14:39]	
        40,5	     1093,48	-100,5	     1215,72	-101,6
     40,5029	     1148,84	-101,1	     1220,09	-101,2
     40,5059	     1190,33	-101,1	     1221,36	-101,3
     40,5088	     1202,29	-101,0	     1226,26	-101,3
     40,5117	     1212,94	-100,9	     1221,56	-101,3
     40,5147	     1216,49	-101,3	      1230,7	-101,6
     40,5176	     1220,92	-101,4	     1227,79	-101,5
     40,5205	     1226,02	-101,1	     1234,56	-101,1
     40,5235	     1226,99	-101,5	     1231,34	-101,5
     40,5264	     1229,68	-100,9	     1236,58	-101,0
     40,5293	     1231,46	-100,9	     1236,62	-101,4
     40,5323	     1232,63	-100,8	     1242,54	-101,3
     40,5352	      1236,6	-101,1	     1239,79	-101,2
     40,5381	     1236,92	-101,2	     1246,05	-101,3
     40,5411	     1240,85	-100,9	     1246,33	-101,4
      40,544	     1240,62	-101,3	     1247,59	-100,8
     40,5469	     1243,45	-101,2	     1249,19	-101,3
     40,5499	      1245,9	-100,9	     1255,43	-101,1
     40,5528	     1247,51	-101,4	     1253,95	-100,9
     40,5557	     1248,31	-101,1	      1258,6	-101,1
     40,5587	     1254,85	-100,8	     1258,62	-100,7
     40,5616	     1256,89	-101,0	     1261,87	-101,1
     40,5645	     1255,23	-101,1	     1265,37	-100,9
     40,5674	        1261	-100,6	     1265,09	-100,6
     40,5704	      1261,5	-101,2	     1270,14	-100,7
     40,5733	     1262,91	-100,9	     1269,78	-100,4
     40,5762	      1268,2	-100,6	     1273,12	-100,7
     40,5792	     1266,79	-101,0	     1275,23	-100,9
     40,5821	     1271,83	-101,1	     1277,65	-101,2
      40,585	     1272,54	-101,1	     1278,03	-100,8
      40,588	     1273,06	-101,1	     1282,28	-101,0
     40,5909	     1276,54	-100,8	     1284,19	-100,4
     40,5938	     1278,23	-100,5	     1285,99	-100,5
     40,5968	     1283,45	-101,0	     1289,62	-100,7
     40,5997	     1282,62	-100,6	     1292,28	-100,7
     40,6026	     1289,82	-101,1	     1294,76	-100,6
     40,6056	     1283,96	-100,9	     1293,74	-100,6
     40,6085	     1292,64	-100,4	     1301,59	-100,4
     40,6114	     1292,35	-101,1	     1298,28	-100,3
     40,6144	     1294,91	-100,7	     1303,63	-100,4
     40,6173	     1298,77	-100,8	     1304,79	-100,1
     40,6202	     1298,99	-100,9	     1306,83	-100,7
     40,6232	     1302,69	-100,7	     1306,69	-100,4
     40,6261	     1306,24	-101,0	      1316,2	-100,3
      40,629	     1306,09	-100,9	     1315,58	-100,4
      40,632	     1308,57	-100,6	     1315,52	-100,5
     40,6349	     1312,21	-100,6	     1320,98	-100,0
     40,6378	     1311,05	-100,6	      1321,9	-100,5
     40,6408	     1316,75	-100,5	     1325,39	-100,2
     40,6437	     1318,59	-100,9	     1323,52	-100,1
     40,6466	     1318,57	-100,6	     1331,38	-100,4
     40,6496	     1323,48	-100,4	     1331,17	-100,0
     40,6525	     1325,17	-100,3	     1334,91	-100,3
     40,6554	      1326,9	-100,4	     1337,29	-100,2
     40,6584	     1330,99	-100,4	     1339,15	-100,0
     40,6613	     1333,83	-100,4	     1340,21	-100,0
     40,6642	     1334,95	-100,2	      1343,4	-100,2
     40,6672	     1339,76	-100,3	     1346,47	-99,8
     40,6701	     1340,36	-100,5	     1350,33	-100,1
      40,673	     1341,86	-100,4	     1348,58	-100,3
      40,676	      1345,7	-100,0	     1358,48	-100,3
     40,6789	     1344,63	-100,1	     1356,74	-100,1
     40,6818	     1350,82	-100,4	     1359,79	-100,1
     40,6847	     1353,02	-100,1	     1363,16	-100,0
     40,6877	      1356,3	-100,2	     1365,33	-99,9
     40,6906	     1357,29	-100,2	     1366,59	-99,8
     40,6936	     1360,93	-100,4	     1372,12	-100,0
     40,6965	     1365,92	-100,3	     1371,89	-100,0
     40,6994	     1364,29	-100,1	     1377,23	-100,1
     40,7023	     1367,36	-99,6	     1376,52	-99,6
     40,7053	     1369,23	-99,9	     1380,93	-100,0
     40,7082	     1373,58	-99,9	     1383,65	-100,3
     40,7111	     1374,37	-99,6	     1385,89	-100,2
     40,7141	     1381,48	-99,9	     1388,68	-100,0
      40,717	     1380,32	-100,1	      1391,9	-100,2
     40,7199	      1386,5	-99,7	     1393,27	-99,7
     40,7229	     1385,73	-100,0	     1396,76	-99,9
     40,7258	     1388,26	-99,6	     1400,81	-100,1
     40,7287	     1391,79	-99,6	     1401,27	-99,8
     40,7317	     1395,02	-100,1	     1404,46	-99,8
     40,7346	      1397,2	-99,8	     1406,26	-99,9
     40,7375	     1400,78	-99,8	     1412,93	-99,5
     40,7405	     1401,46	-99,7	     1413,11	-99,7
     40,7434	     1408,59	-99,9	     1416,29	-99,8
     40,7463	     1407,89	-99,6	     1418,93	-99,5
     40,7493	     1411,43	-99,5	     1424,43	-99,6
     40,7522	      1411,7	-100,1	     1426,79	-100,0
     40,7551	     1412,95	-99,8	      1429,6	-99,4
     40,7581	     1420,57	-99,7	     1429,27	-99,2
      40,761	     1422,98	-99,6	     1436,57	-99,7
     40,7639	     1427,27	-99,6	     1435,12	-99,2
     40,7669	     1427,82	-99,5	     1439,44	-99,2
     40,7698	     1432,19	-99,8	     1441,07	-99,3
     40,7727	     1434,43	-99,6	     1443,33	-99,3
     40,7757	     1436,03	-99,5	     1447,72	-99,4
     40,7786	     1438,99	-99,6	     1449,29	-99,3
     40,7815	     1444,05	-99,4	     1455,84	-99,5
     40,7845	     1445,22	-99,6	     1458,15	-99,2
     40,7874	     1449,25	-99,7	     1459,45	-99,2
     40,7903	     1451,85	-99,4	     1461,82	-99,6
     40,7933	     1452,14	-99,0	     1467,34	-98,9
     40,7962	     1456,49	-99,0	     1468,79	-99,2
     40,7991	     1460,38	-99,4	     1473,35	-99,5
     40,8021	     1462,83	-99,1	     1476,72	-99,4
      40,805	     1467,06	-99,0	     1476,35	-99,0
     40,8079	     1469,87	-99,3	      1482,7	-99,4
     40,8109	     1469,94	-98,9	     1484,02	-99,4
     40,8138	     1475,63	-99,1	     1485,53	-99,0
     40,8167	     1479,85	-99,2	     1489,95	-98,8
     40,8196	     1484,21	-99,3	      1495,6	-99,3
     40,8226	     1483,96	-98,9	     1499,27	-98,9
     40,8255	     1488,56	-99,2	     1498,07	-98,5
     40,8284	     1490,04	-99,4	     1502,37	-98,8
     40,8314	     1496,09	-99,0	     1506,89	-98,8
     40,8343	     1496,31	-99,0	     1512,67	-98,7
     40,8372	     1500,73	-99,0	     1513,65	-98,8
     40,8402	     1502,38	-99,1	     1516,69	-98,8
     40,8431	      1505,9	-99,0	     1521,39	-98,5
      40,846	     1511,21	-99,1	     1520,59	-98,6
      40,849	     1512,91	-99,1	     1524,84	-99,1
     40,8519	     1514,86	-98,9	     1529,44	-98,8
     40,8548	     1516,92	-98,9	     1531,87	-98,7
     40,8578	     1523,46	-98,7	     1537,56	-98,9
     40,8607	     1528,51	-98,7	     1536,85	-98,7
     40,8636	     1529,61	-98,7	     1543,94	-98,7
     40,8666	      1532,4	-98,7	     1547,39	-98,4
     40,8695	     1536,36	-98,7	     1546,57	-98,6
     40,8724	      1538,1	-98,4	     1552,31	-98,4
     40,8754	     1543,85	-98,7	     1556,49	-98,4
     40,8783	     1547,07	-98,6	     1558,93	-98,4
     40,8812	     1550,11	-98,5	     1563,29	-98,3
     40,8842	     1553,47	-98,6	     1565,99	-98,4
     40,8871	     1556,33	-98,6	     1570,03	-98,3
       40,89	     1561,14	-98,7	     1573,48	-98,4
      40,893	     1564,45	-98,4	     1575,07	-97,9
     40,8959	     1566,77	-98,6	     1579,89	-98,1
     40,8988	     1568,94	-98,4	     1588,57	-98,5
     40,9018	      1575,4	-98,2	     1584,06	-98,2
     40,9047	     1575,19	-98,1	     1589,84	-98,4
     40,9076	     1582,57	-98,3	     1599,24	-98,4
     40,9106	     1583,33	-97,9	     1598,88	-98,2
     40,9135	      1589,1	-98,0	     1602,49	-98,2
     40,9164	     1591,44	-98,2	     1607,87	-98,1
     40,9194	     1593,93	-98,5	     1610,67	-98,0
     40,9223	     1597,68	-98,1	     1612,18	-98,1
     40,9252	     1605,43	-98,2	     1616,56	-97,8
     40,9282	     1605,31	-98,4	     1621,81	-97,9
     40,9311	     1608,04	-98,3	     1624,49	-98,0
      40,934	     1614,54	-98,0	      1628,6	-98,0
      40,937	     1616,53	-98,0	     1634,31	-97,7
     40,9399	     1621,29	-98,1	     1635,33	-97,8
     40,9428	     1627,97	-97,9	     1641,43	-98,0
     40,9457	      1626,8	-97,9	     1643,76	-97,8
     40,9487	     1627,99	-98,0	     1649,04	-97,4
     40,9516	     1635,81	-97,8	     1652,56	-98,1
     40,9545	     1638,26	-97,7	     1656,22	-97,7
     40,9575	     1642,66	-97,6	     1658,21	-97,5
     40,9604	     1647,51	-97,8	     1662,89	-97,6
     40,9633	     1651,11	-97,5	     1672,19	-97,7
     40,9663	     1654,87	-97,8	     1670,64	-97,2
     40,9692	     1659,72	-97,7	     1672,88	-97,3
     40,9721	     1664,95	-97,8	     1681,01	-97,5
     40,9751	     1664,01	-97,7	     1681,34	-97,7
      40,978	     1672,82	-97,4	     1687,56	-97,1
     40,9809	     1674,44	-97,4	     1690,55	-97,3
     40,9839	     1676,88	-97,3	     1695,91	-97,6
     40,9868	     1682,53	-97,2	     1701,23	-97,3
     40,9897	     1689,08	-97,3	     1703,06	-97,2
     40,9927	     1690,86	-97,5	     1708,47	-97,4
     40,9956	     1693,67	-97,5	     1715,57	-97,3
     40,9985	     1700,37	-97,2	     1717,79	-97,0
     41,0015	     1705,85	-97,5	      1721,3	-97,1
     41,0044	     1710,23	-97,6	     1726,24	-96,8
     41,0073	     1712,52	-97,5	     1729,05	-97,1
     41,0103	     1715,57	-97,2	      1734,7	-97,1
     41,0132	     1721,18	-97,5	     1740,04	-96,9
     41,0161	     1725,97	-97,3	     1740,72	-97,0
     41,0191	     1727,24	-96,8	      1750,9	-97,0
      41,022	     1734,96	-96,7	      1753,8	-96,8
     41,0249	     1739,07	-96,8	     1757,02	-96,5
     41,0279	     1745,36	-97,2	     1760,19	-96,6
     41,0308	     1746,68	-96,5	     1767,34	-96,8
     41,0337	     1753,65	-96,8	     1772,69	-96,8
     41,0367	     1757,67	-97,0	      1774,7	-96,4
     41,0396	     1759,99	-96,9	     1778,51	-96,7
     41,0425	     1766,16	-96,7	     1786,45	-96,9
     41,0455	     1768,36	-96,7	     1786,83	-96,8
     41,0484	     1773,96	-96,7	     1793,67	-96,4
     41,0513	     1784,24	-96,8	      1801,7	-96,9
     41,0543	     1781,21	-96,8	     1806,63	-96,5
     41,0572	     1788,84	-96,5	     1806,73	-96,3
     41,0601	     1792,25	-96,7	     1810,71	-96,1
      41,063	     1799,16	-96,8	     1818,35	-96,3
      41,066	     1801,01	-96,7	     1824,53	-96,4
     41,0689	      1805,7	-96,6	     1828,86	-96,5
     41,0718	      1814,4	-96,6	     1832,79	-96,4
     41,0748	     1818,24	-96,4	     1836,81	-95,8
     41,0777	     1820,16	-96,2	     1844,31	-96,4
     41,0806	     1822,96	-95,8	     1850,69	-96,0
     41,0836	     1832,35	-96,1	      1849,3	-95,7
     41,0865	     1835,64	-96,1	     1857,42	-95,9
     41,0894	     1839,68	-96,1	     1864,97	-95,8
     41,0924	      1843,3	-96,1	     1864,62	-96,1
     41,0953	     1847,47	-95,8	     1874,44	-96,0
     41,0982	     1854,28	-96,3	     1877,97	-95,6
     41,1012	        1859	-96,0	     1888,28	-96,1
     41,1041	     1865,26	-95,7	     1890,93	-95,6
      41,107	     1868,81	-96,1	     1893,37	-95,6
       41,11	     1870,55	-96,0	     1897,78	-95,3
     41,1129	     1881,58	-95,9	     1905,36	-95,3
     41,1158	     1884,86	-95,6	     1912,09	-95,4
     41,1188	     1891,81	-95,9	      1916,3	-95,2
     41,1217	     1896,26	-96,0	     1921,51	-95,4
     41,1246	     1900,45	-95,9	     1929,79	-95,4
     41,1276	     1902,75	-95,5	     1933,58	-95,2
     41,1305	     1910,68	-95,2	     1938,22	-95,1
     41,1334	     1918,34	-95,4	     1947,05	-94,8
     41,1364	     1922,87	-95,4	     1947,23	-94,9
     41,1393	     1927,55	-95,3	     1954,41	-95,2
     41,1422	     1933,53	-95,4	     1962,78	-95,4
     41,1452	     1939,95	-95,2	     1967,54	-95,1
     41,1481	      1946,7	-95,6	     1973,32	-94,9
      41,151	     1950,51	-94,5	     1980,63	-94,9
      41,154	      1957,7	-96,0	     1985,18	-94,6
     41,1569	     1962,37	-95,2	     1989,05	-94,6
     41,1598	     1965,04	-94,8	     1997,38	-94,5
     41,1628	     1973,22	-94,8	      2006,7	-94,6
     41,1657	     1978,11	-94,8	     2009,43	-94,7
     41,1686	     1984,91	-94,8	     2015,35	-94,7
     41,1716	     1993,19	-95,0	     2022,19	-94,8
     41,1745	     1996,59	-94,9	     2030,68	-94,2
     41,1774	     2003,66	-94,6	     2035,76	-94,1
     41,1804	     2009,49	-94,3	     2042,32	-94,3
     41,1833	     2013,72	-94,6	     2047,82	-94,1
     41,1862	     2019,52	-94,5	     2051,59	-94,3
     41,1891	     2030,83	-94,8	     2061,06	-94,2
     41,1921	     2031,91	-94,7	      2068,1	-94,5
      41,195	     2039,61	-94,3	     2073,58	-94,3
     41,1979	     2048,52	-94,3	     2079,61	-94,1
     41,2009	     2050,86	-94,6	     2086,36	-94,0
     41,2038	     2058,64	-94,3	     2094,52	-93,9
     41,2067	     2066,17	-94,4	     2100,04	-93,9
     41,2097	     2070,86	-94,3	     2108,89	-94,0
     41,2126	     2078,48	-94,4	     2115,49	-94,0
     41,2155	     2088,57	-94,2	     2119,79	-93,7
     41,2185	     2092,71	-94,0	     2132,21	-93,8
     41,2214	     2102,09	-93,9	     2140,13	-93,5
     41,2243	     2104,83	-93,6	     2144,96	-93,6
     41,2273	     2111,72	-93,9	     2147,32	-93,6
     41,2302	     2116,82	-94,1	     2158,47	-93,5
     41,2331	     2128,11	-93,9	     2166,75	-93,6
     41,2361	     2138,08	-93,8	      2173,8	-93,5
      41,239	     2135,51	-93,4	     2183,53	-93,3
     41,2419	     2143,18	-93,1	      2187,6	-93,1
     41,2449	     2154,48	-93,5	     2196,32	-93,0
     41,2478	     2165,78	-93,6	     2202,36	-92,9
     41,2507	     2170,48	-93,6	     2213,02	-93,3
     41,2537	     2175,44	-93,4	     2220,53	-92,9
     41,2566	     2179,82	-92,9	     2223,27	-92,9
     41,2595	     2194,79	-93,2	     2231,75	-92,8
     41,2625	     2196,92	-93,3	     2241,47	-92,4
     41,2654	     2205,21	-93,0	     2248,59	-92,8
     41,2683	     2211,53	-93,1	     2258,61	-93,0
     41,2713	     2220,97	-92,9	     2266,33	-92,7
     41,2742	     2229,14	-92,7	     2276,07	-92,3
     41,2771	     2234,06	-92,9	     2279,32	-91,9
     41,2801	     2241,37	-92,5	     2288,28	-92,3
      41,283	     2252,36	-92,8	     2302,19	-92,4
     41,2859	     2259,59	-92,8	     2310,09	-92,5
     41,2889	     2271,32	-92,7	     2315,64	-92,0
     41,2918	     2280,31	-92,8	     2323,97	-92,0
     41,2947	     2282,75	-92,4	     2335,54	-91,6
     41,2977	     2293,31	-92,4	     2344,19	-91,7
     41,3006	     2303,34	-92,1	     2349,64	-91,9
     41,3035	      2309,5	-92,3	     2363,85	-91,6
     41,3064	     2316,69	-92,4	     2370,29	-91,4
     41,3094	     2324,96	-92,2	     2380,59	-91,2
     41,3123	     2335,71	-91,9	     2384,83	-91,2
     41,3153	     2342,83	-91,7	      2399,8	-91,3
     41,3182	     2352,19	-91,7	      2410,5	-91,3
     41,3211	     2362,27	-91,8	     2423,34	-91,4
      41,324	     2369,65	-91,7	     2429,02	-91,1
      41,327	     2379,58	-91,7	     2438,81	-91,2
     41,3299	     2389,91	-91,4	     2451,56	-91,0
     41,3328	     2396,48	-91,6	     2459,98	-90,8
     41,3358	     2407,85	-91,4	     2469,35	-91,0
     41,3387	     2418,07	-91,3	     2480,37	-90,7
     41,3416	     2432,83	-91,5	     2488,61	-90,6
     41,3446	     2437,57	-91,2	     2501,21	-90,2
     41,3475	     2442,52	-90,8	     2514,31	-90,3
     41,3504	     2453,74	-90,6	     2522,07	-90,2
     41,3534	     2468,26	-91,1	     2534,55	-89,9
     41,3563	     2479,42	-90,7	     2544,08	-90,0
     41,3592	     2488,22	-90,8	     2555,79	-89,8
     41,3622	     2495,02	-90,7	     2566,81	-90,2
     41,3651	     2506,03	-90,2	     2580,89	-89,7
      41,368	     2521,03	-90,4	     2588,67	-89,7
      41,371	     2531,02	-90,3	     2601,59	-89,2
     41,3739	     2547,09	-90,4	     2613,54	-89,5
     41,3768	     2567,37	-90,1	     2624,17	-89,3
     41,3798	      2577,9	-90,1	     2641,59	-89,1
     41,3827	     2583,13	-90,1	     2649,67	-89,2
     41,3856	     2589,49	-90,0	     2664,53	-88,7
     41,3886	     2603,29	-89,9	     2677,67	-88,8
     41,3915	     2614,51	-89,7	     2689,64	-88,6
     41,3944	     2626,83	-89,6	     2698,84	-88,4
     41,3974	     2632,65	-89,6	     2715,42	-88,4
     41,4003	     2644,35	-89,1	     2728,48	-88,6
     41,4032	     2659,14	-89,1	     2743,03	-88,7
     41,4062	     2670,36	-89,0	      2755,3	-88,3
     41,4091	     2683,52	-88,7	     2775,14	-88,0
      41,412	     2696,34	-88,9	     2787,91	-87,7
      41,415	     2710,84	-88,7	     2798,61	-87,7
     41,4179	     2723,95	-88,8	     2810,37	-87,9
     41,4208	     2734,67	-88,4	     2835,51	-87,6
     41,4238	     2744,31	-88,0	     2848,87	-87,1
     41,4267	     2758,55	-88,1	     2862,56	-86,8
     41,4296	     2770,46	-88,1	     2876,73	-86,9
     41,4326	     2789,62	-88,2	     2892,58	-86,9
     41,4355	      2805,6	-88,0	     2916,75	-87,1
     41,4384	     2817,88	-87,6	     2932,88	-86,7
     41,4413	     2828,19	-88,1	     2946,75	-86,4
     41,4443	     2842,26	-87,4	     2966,98	-86,4
     41,4472	     2857,58	-87,4	     2985,73	-86,0
     41,4501	     2873,18	-87,3	     3004,27	-85,9
     41,4531	     2891,43	-87,0	     3023,11	-85,5
      41,456	     2905,59	-86,7	     3038,07	-85,5
     41,4589	     2922,92	-86,7	     3058,58	-85,6
     41,4619	     2939,84	-86,7	     3083,57	-85,1
     41,4648	     2953,77	-86,4	     3105,16	-84,9
     41,4677	     2964,34	-86,0	     3130,11	-84,4
     41,4707	     2987,05	-86,1	     3151,73	-84,2
     41,4736	     3007,83	-86,2	     3180,56	-84,2
     41,4765	     3023,98	-86,1	     3204,23	-84,3
     41,4795	     3043,52	-85,7	      3231,9	-84,1
     41,4824	     3061,52	-85,3	     3263,04	-83,5
     41,4853	     3078,84	-85,0	     3304,93	-83,5
     41,4883	     3096,36	-85,3	     3371,45	-82,8
     41,4912	      3115,1	-85,0	     3452,56	-82,8
     41,4941	     3134,17	-84,6	     3566,63	-82,2
     41,4971	     3158,18	-84,4	     3718,95	-81,3
        41,5	     3176,33	-84,3	     3915,55	-80,1
     41,5029	     3197,87	-84,3	     4190,06	-77,9
     41,5059	     3216,52	-83,8	     4439,25	-75,8
     41,5088	      3237,2	-83,5	     4705,04	-72,8
     41,5117	     3265,03	-83,5	     4962,75	-69,8
     41,5147	     3296,96	-83,5	     5249,16	-66,6
     41,5176	     3317,29	-83,4	     5466,95	-63,8
     41,5205	        3335	-82,8	     5664,83	-60,9
     41,5235	     3360,61	-82,5	     5835,09	-58,1
     41,5264	     3381,95	-82,2	     6021,74	-54,9
     41,5293	     3403,02	-82,2	     6154,52	-52,8
     41,5323	     3424,98	-81,8	      6272,5	-50,8
     41,5352	      3453,7	-81,6	      6373,3	-48,6
     41,5381	     3486,41	-81,4	     6468,89	-46,7
     41,5411	     3513,62	-81,4	     6569,55	-45,0
      41,544	     3542,87	-80,9	     6636,61	-43,8
     41,5469	     3580,42	-80,3	     6695,83	-42,2
     41,5499	     3610,86	-79,8	     6761,28	-40,2
     41,5528	     3645,17	-79,7	     6806,62	-38,9
     41,5557	     3678,64	-79,4	     6853,79	-38,2
     41,5587	     3708,73	-78,8	     6890,25	-37,1
     41,5616	     3750,88	-78,5	     6923,14	-35,7
     41,5645	     3794,58	-78,3	     6958,83	-34,9
     41,5674	     3832,63	-78,0	     6991,95	-34,1
     41,5704	      3868,6	-77,5	     7017,45	-33,3
     41,5733	      3909,3	-76,9	      7042,1	-32,3
     41,5762	     3954,17	-76,7	      7062,9	-31,4
     41,5792	     4003,72	-76,0	     7082,15	-31,0
     41,5821	     4050,97	-75,2	     7105,83	-29,9
      41,585	     4102,26	-74,7	     7117,02	-29,2
      41,588	     4154,51	-74,3	     7132,84	-28,3
     41,5909	     4209,36	-73,8	     7147,41	-28,1
     41,5938	      4277,7	-73,1	     7161,17	-27,2
     41,5968	     4338,42	-72,1	        7174	-26,6
     41,5997	     4404,23	-71,4	     7184,84	-25,6
     41,6026	     4470,56	-70,8	     7190,22	-25,3
     41,6056	     4546,06	-69,8	     7196,75	-24,9
     41,6085	     4635,59	-68,6	     7203,81	-24,2
     41,6114	     4720,16	-67,3	     7210,82	-23,5
     41,6144	     4810,72	-66,4	     7214,72	-23,0
     41,6173	     4900,64	-65,3	     7219,26	-22,8
     41,6202	     5003,28	-63,8	     7226,39	-22,3
     41,6232	     5114,54	-62,3	     7228,95	-21,7
     41,6261	     5254,47	-60,0	     7234,52	-20,9
      41,629	        5379	-58,4	     7234,62	-20,7
      41,632	     5518,75	-55,9	     7237,24	-20,1
     41,6349	     5662,59	-53,8	     7242,21	-19,5
     41,6378	     5821,78	-51,5	     7243,99	-19,3
     41,6408	     6017,26	-48,3	     7245,35	-18,9
     41,6437	     6181,55	-45,1	     7246,17	-18,4
     41,6466	     6347,54	-41,9	      7244,9	-18,0
     41,6496	      6510,6	-38,9	     7248,53	-17,9
     41,6525	      6704,2	-34,4	     7242,43	-17,4
     41,6554	     6849,47	-30,7	     7239,78	-17,0
     41,6584	      6972,7	-27,2	     7240,65	-16,3
     41,6613	     7075,08	-24,6	      7241,7	-16,1
     41,6642	     7152,13	-21,8	     7242,54	-15,7
     41,6672	     7220,56	-19,1	     7237,17	-15,5
     41,6701	     7250,35	-17,3	     7232,61	-14,8
      41,673	     7271,07	-16,4	     7230,75	-14,8
      41,676	     7284,79	-15,2	     7227,24	-14,4
     41,6789	     7285,95	-14,2	     7224,52	-14,3
     41,6818	     7282,54	-13,9	     7222,65	-13,6
     41,6847	     7272,49	-13,4	     7221,16	-13,5
     41,6877	      7264,7	-13,0	     7220,23	-12,8
     41,6906	     7262,98	-12,6	     7215,74	-12,4
     41,6936	     7258,57	-12,5	     7212,49	-12,0
     41,6965	     7253,76	-11,7	     7211,55	-11,8
     41,6994	     7250,91	-11,3	     7204,98	-11,5
     41,7023	      7240,4	-10,8	     7201,93	-11,3
     41,7053	     7235,91	-10,9	     7193,77	-10,8
     41,7082	     7231,83	-10,8	     7192,37	-10,8
     41,7111	     7225,42	-10,3	     7189,21	-10,3
     41,7141	     7221,97	-10,0	     7183,43	-9,8
      41,717	     7217,41	-9,9	     7178,51	-9,9
     41,7199	     7210,12	-9,4	     7171,77	-9,5
     41,7229	     7202,66	-9,2	     7166,46	-9,1
     41,7258	     7195,34	-8,6	     7163,66	-8,6
     41,7287	     7191,99	-8,6	      7162,1	-8,4
     41,7317	     7183,21	-8,0	     7153,01	-8,2
     41,7346	     7177,48	-7,5	     7149,34	-7,7
     41,7375	     7172,28	-7,2	     7145,63	-7,3
     41,7405	     7167,23	-7,3	     7136,22	-7,5
     41,7434	     7159,82	-6,7	     7132,45	-6,7
     41,7463	     7155,24	-6,6	     7125,41	-6,7
     41,7493	     7148,12	-6,7	     7120,15	-6,6
     41,7522	     7143,79	-6,4	     7113,95	-6,5
     41,7551	     7134,69	-5,8	      7107,5	-6,0
     41,7581	      7124,2	-5,8	     7097,86	-5,7
      41,761	     7118,82	-5,5	      7086,6	-5,8
     41,7639	     7108,46	-5,1	     7081,39	-5,5
     41,7669	     7101,79	-4,6	     7076,29	-4,9
     41,7698	     7098,39	-4,8	      7070,2	-4,6
     41,7727	     7091,19	-4,4	     7062,08	-4,6
     41,7757	     7080,23	-3,6	     7060,79	-4,0
     41,7786	     7072,23	-3,6	     7053,87	-3,9
     41,7815	     7067,05	-3,6	     7041,64	-3,8
     41,7845	     7059,11	-3,1	     7034,45	-3,6
     41,7874	     7051,02	-3,1	      7029,1	-3,2
     41,7903	     7041,91	-2,8	     7022,01	-2,9
     41,7933	     7034,45	-2,7	     7015,12	-3,0
     41,7962	     7025,13	-2,2	     7006,47	-2,7
     41,7991	     7018,67	-2,2	     6999,73	-2,3
     41,8021	     7004,17	-2,1	     6995,15	-2,5
      41,805	     6998,52	-1,8	     6986,36	-2,0
     41,8079	     6993,63	-1,5	     6978,79	-1,6
     41,8109	     6984,81	-1,4	     6968,31	-1,4
     41,8138	     6975,87	-1,1	     6962,08	-1,5
     41,8167	     6965,42	-0,6	     6952,64	-0,8
     41,8196	     6959,29	-0,8	     6947,22	-0,5
     41,8226	     6950,64	-0,3	     6939,38	-0,4
     41,8255	     6938,32	 0,1	     6930,55	-0,2
     41,8284	      6928,7	 0,4	     6923,69	 0,3
     41,8314	     6921,87	 0,3	        6914	 0,3
     41,8343	     6915,22	 0,8	     6908,51	 0,3
     41,8372	     6902,95	 1,0	     6898,31	 0,8
     41,8402	     6894,85	 0,8	     6890,42	 0,8
     41,8431	     6890,73	 1,3	     6883,32	 1,0
      41,846	     6883,43	 1,6	     6872,32	 1,4
      41,849	     6876,56	 1,7	     6866,12	 1,5
     41,8519	      6868,1	 1,9	     6857,07	 1,5
     41,8548	     6855,65	 2,0	     6847,51	 1,7
     41,8578	     6845,21	 2,1	     6840,78	 2,1
     41,8607	     6837,31	 2,3	     6832,71	 2,0
     41,8636	     6824,85	 2,7	     6822,32	 2,3
     41,8666	     6815,29	 2,9	      6814,5	 2,8
     41,8695	     6805,42	 2,7	     6808,62	 2,8
     41,8724	     6794,51	 3,2	     6801,34	 2,9
     41,8754	     6787,55	 3,4	     6788,57	 3,5
     41,8783	     6778,29	 3,5	     6780,15	 3,8
     41,8812	     6771,69	 3,7	     6772,33	 3,7
     41,8842	     6759,63	 4,1	     6762,69	 4,1
     41,8871	      6749,8	 3,9	     6754,44	 4,2
       41,89	      6743,3	 4,3	     6742,71	 4,3
      41,893	     6730,81	 4,9	     6735,08	 4,5
     41,8959	     6724,53	 4,9	     6726,35	 5,1
     41,8988	     6716,57	 5,0	     6720,88	 4,9
     41,9018	     6699,74	 5,5	     6710,34	 5,2
     41,9047	     6691,39	 5,5	     6696,38	 5,2
     41,9076	     6686,06	 5,7	     6687,38	 5,4
     41,9106	     6677,69	 6,0	     6680,25	 5,8
     41,9135	     6664,84	 5,9	     6670,62	 6,3
     41,9164	     6658,57	 5,9	     6672,87	 6,1
     41,9194	     6649,54	 6,7	     6655,71	 5,9
     41,9223	     6639,24	 6,7	     6643,63	 6,3
     41,9252	     6633,74	 6,9	     6636,06	 6,1
     41,9282	     6625,37	 7,0	      6622,5	 5,8
     41,9311	     6614,71	 7,0	     6614,19	 6,9
      41,934	      6604,5	 7,2	      6609,1	 6,9
      41,937	     6595,07	 7,6	     6596,96	 7,0
     41,9399	     6584,42	 7,8	      6584,8	 7,4
     41,9428	     6571,06	 7,6	     6580,02	 7,6
     41,9457	     6562,91	 8,0	     6568,17	 7,4
     41,9487	     6556,37	 8,2	     6559,17	 8,0
     41,9516	     6548,26	 8,4	     6551,08	 7,8
     41,9545	     6535,71	 8,6	     6543,04	 8,0
     41,9575	     6519,94	 8,9	     6530,67	 8,4
     41,9604	     6511,53	 8,7	     6523,71	 8,7
     41,9633	      6504,8	 9,1	     6510,18	 8,5
     41,9663	     6490,26	 9,1	      6498,2	 8,9
     41,9692	     6480,79	 9,3	     6493,77	 8,9
     41,9721	      6472,1	 9,7	     6487,53	 9,3
     41,9751	     6464,08	 9,8	     6476,16	 9,7
      41,978	     6454,27	 9,7	     6464,86	 9,8
     41,9809	     6443,14	10,3	     6458,63	 9,8
     41,9839	     6435,82	10,1	     6453,33	10,2
     41,9868	     6424,37	10,3	     6438,38	10,4
     41,9897	     6413,65	10,7	     6427,71	10,4
     41,9927	     6405,39	10,8	      6420,2	10,8
     41,9956	     6391,27	10,8	     6413,46	10,6
     41,9985	     6380,39	11,3	     6401,89	10,9
     42,0015	     6369,12	11,3	     6390,71	11,5
     42,0044	      6362,8	11,2	     6382,58	11,2
     42,0073	     6350,24	11,5	     6373,42	11,3
     42,0103	     6342,77	11,4	     6363,96	12,1
     42,0132	     6335,28	11,8	      6354,4	12,0
     42,0161	     6321,85	12,3	     6345,46	11,9
     42,0191	     6310,72	12,2	     6334,98	12,2
      42,022	     6298,25	12,2	     6324,42	12,0
     42,0249	     6289,36	12,6	     6316,17	12,4
     42,0279	     6282,31	12,4	     6307,89	12,9
     42,0308	     6271,22	12,8	     6296,58	12,6
     42,0337	     6259,35	13,1	     6285,46	13,0
     42,0367	     6248,76	12,9	     6275,84	13,5
     42,0396	     6241,13	13,4	     6266,42	13,1
     42,0425	     6229,06	13,8	     6255,72	13,6
     42,0455	     6216,46	13,5	     6246,47	13,5
     42,0484	     6208,11	14,1	     6238,76	13,8
     42,0513	     6201,22	13,8	     6229,96	14,1
     42,0543	     6188,14	14,0	     6215,72	14,0
     42,0572	     6176,81	14,4	     6206,56	14,0
     42,0601	     6164,11	14,4	     6195,17	14,6
      42,063	     6156,14	14,5	     6188,49	14,9
      42,066	      6147,8	14,9	     6179,15	14,7
     42,0689	      6139,9	15,0	      6165,7	15,0
     42,0718	     6128,56	15,0	     6158,46	14,6
     42,0748	     6117,23	15,4	     6146,28	15,2
     42,0777	     6107,96	15,1	     6138,81	15,3
     42,0806	     6095,08	15,7	     6131,54	15,1
     42,0836	     6083,81	15,7	     6121,66	15,5
     42,0865	     6076,34	15,5	     6108,42	15,7
     42,0894	     6063,41	16,0	     6099,29	15,6
     42,0924	     6052,17	15,9	     6086,49	15,9
     42,0953	     6044,96	16,3	     6077,58	15,8
     42,0982	     6032,82	16,5	      6067,5	16,1
     42,1012	     6026,83	16,2	     6058,78	16,6
     42,1041	     6014,13	16,8	     6049,16	16,2
      42,107	     5998,71	16,8	     6039,42	16,8
       42,11	      5988,5	16,8	     6027,82	17,0
     42,1129	     5980,24	17,4	     6013,69	16,7
     42,1158	     5967,63	17,2	     6005,08	17,3
     42,1188	     5960,19	17,2	     5996,88	17,3
     42,1217	     5948,99	17,8	     5988,33	17,1
     42,1246	     5936,03	17,7	     5976,82	17,7
     42,1276	      5927,9	17,6	      5966,8	17,5
     42,1305	     5922,37	18,1	     5958,61	18,0
     42,1334	     5910,61	18,1	     5944,47	17,9
     42,1364	     5896,51	18,6	     5935,84	17,9
     42,1393	      5883,5	18,6	     5929,98	18,4
     42,1422	     5875,38	18,6	     5909,43	18,3
     42,1452	     5869,88	19,5	     5904,55	18,4
     42,1481	     5856,29	18,9	     5896,18	18,8
      42,151	     5845,72	19,2	     5879,95	18,7
      42,154	     5835,74	19,4	     5876,16	19,4
     42,1569	     5827,37	19,2	     5866,83	19,2
     42,1598	     5816,61	19,7	     5847,34	19,2
     42,1628	     5804,74	19,6	     5842,75	19,7
     42,1657	     5795,26	19,7	     5838,78	19,6
     42,1686	     5786,54	20,1	     5824,09	19,8
     42,1716	     5772,09	19,9	     5810,78	20,1
     42,1745	     5764,38	20,2	      5803,6	20,1
     42,1774	     5754,09	20,0	     5790,89	20,5
     42,1804	     5740,03	20,2	     5788,04	20,4
     42,1833	     5729,25	20,6	     5776,51	20,3
     42,1862	     5718,77	20,3	     5768,12	20,5
     42,1891	     5710,46	20,3	     5755,37	20,8
     42,1921	     5699,42	20,9	     5744,02	20,7
      42,195	     5687,11	20,8	     5731,78	21,0
     42,1979	     5679,69	21,2	      5722,6	20,9
     42,2009	     5666,94	21,1	      5712,9	21,3
     42,2038	     5659,69	21,4	     5705,53	21,3
     42,2067	     5647,73	21,7	     5696,49	21,3
     42,2097	     5632,99	21,5	      5684,1	21,6
     42,2126	     5624,27	21,8	     5668,29	21,5
     42,2155	     5619,23	22,0	     5660,22	21,7
     42,2185	     5609,53	22,2	      5652,2	22,0
     42,2214	     5594,93	22,4	     5641,44	21,8
     42,2243	     5586,17	22,3	     5630,99	22,4
     42,2273	     5577,32	22,6	     5623,85	22,3
     42,2302	     5563,38	22,6	      5609,3	22,4
     42,2331	     5553,51	22,7	     5601,36	22,7
     42,2361	     5541,57	23,2	     5590,38	22,6
      42,239	     5531,41	23,0	     5580,52	23,0
     42,2419	     5524,62	23,2	     5568,63	23,0
     42,2449	     5510,14	23,2	     5557,88	23,3
     42,2478	     5499,63	23,1	     5556,44	23,6
     42,2507	     5490,04	23,4	      5542,4	23,2
     42,2537	     5475,53	23,2	      5527,9	23,4
     42,2566	     5468,66	23,4	     5515,47	23,7
     42,2595	     5457,64	23,6	      5505,5	23,8
     42,2625	     5449,73	23,7	     5504,33	24,1
     42,2654	     5440,13	24,2	     5493,34	23,9
     42,2683	     5423,44	23,9	     5481,15	24,0
     42,2713	      5415,2	24,3	     5465,49	24,2
     42,2742	     5407,01	24,4	     5454,96	24,2
     42,2771	     5400,65	24,7	     5449,49	24,4
     42,2801	     5386,23	25,0	      5437,7	24,2
      42,283	     5373,63	24,7	     5428,53	24,7
     42,2859	     5364,39	25,2	     5415,37	24,6
     42,2889	     5357,67	25,1	      5405,1	25,0
     42,2918	     5348,61	25,3	      5400,4	25,2
     42,2947	     5331,97	25,4	     5387,67	25,1
     42,2977	     5323,09	25,1	     5376,57	25,6
     42,3006	     5315,95	25,6	     5367,13	25,4
     42,3035	     5305,99	25,4	     5355,73	25,8
     42,3064	     5295,07	25,6	     5347,18	25,7
     42,3094	      5285,2	25,8	     5334,15	25,8
     42,3123	     5277,74	25,9	     5325,92	26,0
     42,3153	     5264,67	26,4	     5317,27	25,8
     42,3182	     5253,14	26,1	      5303,5	26,3
     42,3211	      5242,9	26,4	     5294,76	26,2
      42,324	     5234,15	26,6	     5284,01	26,4
      42,327	     5225,36	27,0	     5279,16	26,6
     42,3299	     5212,73	26,9	     5268,33	26,7
     42,3328	     5204,93	26,9	     5256,07	26,8
     42,3358	     5191,37	27,4	        5248	26,7
     42,3387	     5180,05	27,1	     5236,95	27,4
     42,3416	     5169,27	27,3	     5227,66	27,1
     42,3446	     5160,05	27,4	     5214,06	27,2
     42,3475	     5148,57	27,5	     5204,08	27,7
     42,3504	     5139,43	27,7	     5196,05	27,4
     42,3534	     5131,96	27,6	     5185,99	27,7
     42,3563	     5121,36	28,1	     5176,69	27,5
     42,3592	     5106,76	27,8	     5165,47	27,7
     42,3622	     5101,62	28,2	      5155,2	27,8
     42,3651	     5089,28	28,3	     5144,99	27,9
      42,368	     5082,61	28,4	     5138,59	28,3
      42,371	     5073,57	28,8	      5125,1	28,1
     42,3739	      5060,8	28,4	     5114,58	28,5
     42,3768	     5050,92	28,9	      5105,9	28,5
     42,3798	     5041,09	28,5	     5097,32	29,0
     42,3827	        5029	28,9	     5086,54	29,0
     42,3856	        5019	28,8	     5077,36	28,8
     42,3886	     5006,28	28,6	     5065,54	29,2
     42,3915	     4996,09	29,5	     5055,05	28,7
     42,3944	     4988,59	29,4	     5044,52	29,1
     42,3974	     4980,71	29,9	     5032,65	29,2
     42,4003	     4971,18	29,6	     5022,78	29,3
     42,4032	     4960,24	30,0	     5016,42	29,4
     42,4062	     4947,84	29,6	     5006,43	29,7
     42,4091	     4937,39	29,8	     4996,04	29,9
      42,412	     4926,13	30,1	     4983,01	29,7
      42,415	     4921,15	29,8	        4974	30,2
     42,4179	     4907,79	30,3	     4965,79	30,3
     42,4208	     4898,51	30,2	     4952,43	30,4
     42,4238	     4888,98	30,5	     4944,81	30,1
     42,4267	      4878,8	30,5	     4932,63	30,5
     42,4296	     4867,73	31,0	     4925,98	30,4
     42,4326	     4856,21	31,0	     4913,56	30,5
     42,4355	     4849,55	30,8	     4905,91	30,8
     42,4384	     4839,48	31,1	     4895,56	30,6
     42,4413	     4829,66	31,0	     4884,96	31,0
     42,4443	        4820	31,2	     4875,39	30,9
     42,4472	     4808,31	31,1	     4866,01	31,6
     42,4501	     4797,14	31,6	     4855,19	31,3
     42,4531	     4788,06	31,3	     4842,15	31,3
      42,456	     4779,33	31,7	     4831,07	31,5
     42,4589	     4768,65	31,7	     4821,52	31,6
     42,4619	     4758,35	31,8	     4817,22	31,7
     42,4648	     4747,88	32,2	     4807,09	31,5
     42,4677	     4742,81	32,0	     4796,16	32,1
     42,4707	     4729,04	32,0	     4786,72	31,9
     42,4736	     4720,01	32,2	     4776,02	32,4
     42,4765	     4708,37	32,5	      4766,7	32,2
     42,4795	     4699,23	32,2	     4754,28	32,5
     42,4824	     4687,94	32,7	     4747,11	32,5
     42,4853	     4682,94	32,6	     4734,32	32,6
     42,4883	      4671,7	32,7	      4726,3	32,3
     42,4912	     4663,01	33,1	     4714,33	32,5
     42,4941	     4652,41	33,2	     4706,57	32,8
     42,4971	     4639,74	33,4	     4695,95	32,8
        42,5	     4631,77	33,0	     4688,71	33,2
     42,5029	     4620,73	33,4	     4677,69	33,3
     42,5059	     4611,49	33,1	     4666,42	33,4
     42,5088	      4602,6	33,5	     4657,67	33,5
     42,5117	     4595,18	33,5	     4647,84	33,5
     42,5147	     4582,85	33,7	      4636,5	33,0
     42,5176	     4571,85	33,7	     4626,13	33,7
     42,5205	     4566,82	34,1	     4616,02	33,8
     42,5235	     4555,96	33,6	     4604,77	33,7
     42,5264	     4543,37	34,0	     4599,81	33,9
     42,5293	     4532,97	34,2	      4588,9	34,4
     42,5323	     4525,25	34,1	     4580,81	34,0
     42,5352	     4516,16	34,3	     4569,91	34,3
     42,5381	     4507,97	34,5	     4558,99	34,4
     42,5411	     4496,54	34,6	     4548,64	34,2
      42,544	     4486,38	34,6	     4540,16	34,6
     42,5469	     4477,59	34,9	     4532,77	34,7
     42,5499	      4469,6	34,7	     4520,23	34,8
     42,5528	     4455,72	34,9	     4510,54	34,9
     42,5557	     4450,41	34,8	     4502,35	35,2
     42,5587	     4438,83	35,3	     4492,07	34,9
     42,5616	     4431,74	35,1	     4483,78	35,1
     42,5645	     4422,83	35,5	     4474,84	35,2
     42,5674	     4414,54	35,5	     4460,45	35,3
     42,5704	      4401,8	35,8	     4451,41	35,3
     42,5733	      4392,7	35,5	     4444,88	35,8
     42,5762	     4382,24	35,8	     4436,89	35,7
     42,5792	        4378	35,6	     4422,58	35,8
     42,5821	     4367,64	36,2	     4416,33	36,0
      42,585	     4356,92	35,9	     4406,32	35,9
      42,588	     4349,51	36,3	     4396,27	35,8
     42,5909	     4338,72	36,0	     4384,91	35,9
     42,5938	     4326,62	36,4	     4376,25	36,2
     42,5968	     4314,25	36,3	     4369,38	36,2
     42,5997	     4309,31	36,3	     4360,57	36,8
     42,6026	     4300,17	36,4	     4347,46	36,5
     42,6056	      4293,4	36,9	     4335,67	36,9
     42,6085	     4282,36	36,9	     4327,26	36,5
     42,6114	     4272,36	37,2	     4317,63	36,7
     42,6144	     4258,27	36,9	     4311,01	36,7
     42,6173	     4253,86	37,0	     4305,94	37,1
     42,6202	        4245	37,0	     4292,55	36,8
     42,6232	     4235,91	37,5	     4282,42	37,5
     42,6261	     4225,39	37,3	     4270,33	37,0
      42,629	     4219,18	37,4	     4262,47	37,2
      42,632	      4207,4	37,3	     4253,63	37,1
     42,6349	     4198,16	37,6	     4244,59	37,5
     42,6378	     4188,19	37,5	     4236,18	37,5
     42,6408	     4184,48	37,5	     4231,76	37,9
     42,6437	      4175,1	37,9	      4219,8	37,5
     42,6466	     4164,52	38,4	     4205,98	38,0
     42,6496	     4150,07	37,8	     4194,63	37,7
     42,6525	      4142,5	38,1	     4184,31	38,0
     42,6554	      4133,9	38,0	      4178,1	37,9
     42,6584	     4125,89	38,3	     4172,64	38,4
     42,6613	     4116,84	38,1	     4163,32	38,3
     42,6642	     4108,32	38,2	     4155,58	38,3
     42,6672	     4097,34	38,6	     4143,74	38,5
     42,6701	     4091,45	38,7	     4133,76	38,5
      42,673	     4079,73	38,5	     4123,06	38,2
      42,676	     4072,08	38,7	     4115,49	38,9
     42,6789	      4062,3	38,8	     4105,99	38,6
     42,6818	     4054,28	39,1	     4095,71	39,0
     42,6847	     4045,04	39,0	     4085,75	38,9
     42,6877	      4036,7	39,4	      4080,3	39,1
     42,6906	     4027,46	39,3	      4069,2	38,9
     42,6936	     4021,31	39,3	     4056,98	39,2
     42,6965	     4013,22	39,0	     4048,28	39,2
     42,6994	     4001,07	39,4	     4042,99	39,6
     42,7023	     3991,29	39,5	     4034,64	39,4
     42,7053	     3986,42	40,0	     4026,19	39,4
     42,7082	     3975,68	39,6	     4015,11	39,5
     42,7111	     3967,66	39,7	     4007,88	39,7
     42,7141	     3957,15	39,7	     3997,82	39,7
      42,717	     3949,25	40,1	     3989,28	39,9
     42,7199	     3941,52	39,9	     3975,96	40,1
     42,7229	     3930,58	40,3	     3970,89	40,3
     42,7258	     3921,81	40,3	     3960,28	40,0
     42,7287	     3913,33	40,5	     3954,11	40,1
     42,7317	     3902,49	40,1	     3945,43	40,6
     42,7346	     3894,88	40,5	     3933,43	40,5
     42,7375	     3888,46	40,7	     3922,42	40,7
     42,7405	     3876,01	40,9	     3916,07	40,1
     42,7434	      3869,9	40,6	     3904,21	40,6
     42,7463	     3857,03	40,8	     3898,35	40,4
     42,7493	     3853,72	40,7	      3890,8	41,0
     42,7522	     3848,06	40,8	     3880,56	40,8
     42,7551	      3834,1	40,9	     3875,93	41,1
     42,7581	     3823,27	41,2	     3865,15	41,0
      42,761	     3814,95	41,2	     3854,29	41,2
     42,7639	     3806,66	41,1	     3843,03	41,1
     42,7669	     3797,83	41,2	     3834,53	41,3
     42,7698	     3790,97	41,3	     3828,97	41,4
     42,7727	     3782,03	41,8	        3821	41,2
     42,7757	     3774,78	41,5	     3811,17	41,3
     42,7786	     3762,89	41,6	      3798,3	41,5
     42,7815	     3755,91	41,6	     3790,06	41,5
     42,7845	     3748,29	41,9	     3784,97	41,9
     42,7874	     3741,48	42,0	      3776,7	42,1
     42,7903	     3732,14	42,0	     3766,62	42,0
     42,7933	     3725,05	41,9	     3757,25	41,9
     42,7962	     3712,57	42,2	     3749,92	41,9
     42,7991	     3705,06	42,0	     3741,08	42,4
     42,8021	     3698,42	42,3	     3730,82	42,0
      42,805	     3688,43	42,3	     3722,83	42,5
     42,8079	     3678,91	42,4	     3715,34	42,2
     42,8109	     3674,22	42,5	     3707,13	42,4
     42,8138	     3666,88	42,4	     3698,91	42,4
     42,8167	     3652,92	42,7	     3687,59	42,8
     42,8196	     3645,48	42,3	     3683,47	42,6
     42,8226	     3637,44	43,2	     3677,16	42,7
     42,8255	     3634,21	42,8	     3667,82	42,7
     42,8284	     3622,17	43,2	     3661,62	42,8
     42,8314	     3614,35	42,8	     3645,67	43,0
     42,8343	      3605,5	43,3	     3638,14	43,1
     42,8372	     3600,64	43,4	     3629,27	43,1
     42,8402	      3591,3	42,9	     3623,66	42,9
     42,8431	     3582,73	43,2	     3617,68	43,3
      42,846	     3573,02	43,1	     3605,74	43,2
      42,849	     3566,17	43,6	      3596,7	43,8
     42,8519	     3559,84	43,5	     3590,13	43,2
     42,8548	     3551,52	43,6	     3581,11	43,3
     42,8578	     3543,27	43,5	     3571,87	43,5
     42,8607	     3533,02	43,7	     3568,39	43,5
     42,8636	     3527,08	43,6	     3557,02	43,8
     42,8666	     3518,26	44,1	     3546,94	43,7
     42,8695	     3510,91	44,2	     3537,53	43,9
     42,8724	     3500,51	43,8	     3534,43	43,7
     42,8754	     3489,76	43,9	     3524,15	44,2
     42,8783	     3485,08	42,2	     3514,44	44,2
     42,8812	     3478,23	44,1	     3506,22	44,1
     42,8842	     3468,53	44,5	     3499,99	44,0
     42,8871	     3461,74	44,5	     3489,76	44,1
       42,89	     3455,61	44,6	     3479,97	44,2
      42,893	     3446,48	44,6	     3475,54	44,4
     42,8959	     3437,63	44,7	     3466,62	44,5
     42,8988	     3432,14	44,4	     3458,09	44,3
     42,9018	     3421,54	44,9	     3446,08	44,6
     42,9047	     3413,95	44,5	     3439,76	44,6
     42,9076	     3406,37	45,1	     3434,19	44,7
     42,9106	     3397,74	44,8	     3422,05	44,8
     42,9135	      3390,8	44,7	     3419,54	44,8
     42,9164	     3382,64	44,9	     3411,75	45,1
     42,9194	     3373,45	45,0	     3402,97	45,1
     42,9223	     3368,49	45,5	      3390,7	45,3
     42,9252	     3361,49	44,9	     3383,47	45,0
     42,9282	     3353,36	45,5	     3375,14	45,3
     42,9311	     3343,48	45,2	     3372,55	45,5
      42,934	     3333,25	45,5	     3365,55	45,2
      42,937	     3330,01	45,6	     3354,64	45,5
     42,9399	     3323,66	45,3	     3345,77	45,1
     42,9428	     3312,28	45,5	     3336,94	45,6
     42,9457	     3305,94	45,3	     3330,98	45,5
     42,9487	     3300,34	46,0	     3322,78	46,0
     42,9516	     3290,45	45,8	     3314,07	45,5
     42,9545	     3280,24	45,8	     3308,76	45,7
     42,9575	     3276,25	45,7	      3300,5	46,1
     42,9604	     3267,26	46,1	     3291,33	45,9
     42,9633	      3261,3	46,2	     3284,83	46,2
     42,9663	     3255,48	45,9	     3276,07	45,6
     42,9692	     3246,85	46,3	        3271	46,1
     42,9721	     3239,02	46,2	     3263,03	46,3
     42,9751	     3228,89	46,3	     3254,01	46,4
      42,978	     3224,43	46,4	     3244,34	46,2
     42,9809	      3217,4	46,2	     3237,85	46,1
     42,9839	     3207,65	46,5	     3232,82	46,6
     42,9868	     3202,71	46,5	     3223,85	46,3
     42,9897	     3192,89	46,6	     3216,88	46,4
     42,9927	     3184,48	46,5	     3204,28	46,7
     42,9956	     3175,37	46,5	     3197,24	46,5
     42,9985	     3172,88	47,1	     3190,49	47,1
     43,0015	     3166,11	46,6	     3184,64	46,7
     43,0044	     3154,03	46,7	     3181,89	46,7
     43,0073	     3147,46	46,6	      3170,7	47,0
     43,0103	      3140,9	47,1	     3164,57	47,1
     43,0132	        3139	47,3	     3158,52	47,0
     43,0161	     3129,98	46,8	      3146,5	46,6
     43,0191	     3119,88	47,2	     3142,02	47,2
      43,022	     3115,17	47,2	     3131,72	47,2
     43,0249	     3106,08	47,5	      3128,5	47,3
     43,0279	     3096,08	47,4	     3119,27	47,2
     43,0308	     3094,26	47,1	     3114,57	47,1
     43,0337	      3084,9	47,7	     3105,78	47,5
     43,0367	     3081,05	47,6	     3098,42	47,5
     43,0396	        3071	47,3	     3090,82	47,4
     43,0425	     3064,57	47,5	     3084,74	47,8
     43,0455	     3056,77	47,5	     3079,15	47,4
     43,0484	     3048,79	48,1	     3068,62	47,8
     43,0513	     3043,41	47,8	     3062,12	47,6
     43,0543	     3035,29	47,7	     3056,82	47,7
     43,0572	     3028,31	47,7	     3047,33	47,9
     43,0601	      3025,2	48,1	     3039,57	47,9
      43,063	     3018,44	48,2	     3032,28	48,0
      43,066	     3010,51	48,1	     3026,17	48,1
     43,0689	     3001,91	48,3	     3019,48	48,1
     43,0718	     2995,83	48,4	     3012,05	48,4
     43,0748	     2992,39	48,2	     3004,85	47,9
     43,0777	     2980,25	48,4	     2998,98	48,2
     43,0806	     2975,33	48,5	     2990,36	48,5
     43,0836	      2965,8	48,5	     2987,34	48,5
     43,0865	     2962,27	48,4	     2973,96	48,2
     43,0894	     2955,66	48,4	     2966,06	48,3
     43,0924	      2946,3	48,7	     2964,78	48,7
     43,0953	     2941,25	48,7	      2954,7	48,5
     43,0982	     2934,76	48,7	     2949,37	48,3
     43,1012	     2928,35	48,9	     2941,39	48,7
     43,1041	     2920,11	48,9	      2935,9	48,7
      43,107	     2913,87	49,2	     2929,11	48,6
       43,11	     2908,73	48,8	     2920,14	48,7
     43,1129	     2899,33	48,9	     2916,88	48,6
     43,1158	     2889,34	49,2	     2909,84	49,2
     43,1188	     2891,22	48,9	      2902,6	48,7
     43,1217	     2879,36	49,1	     2897,07	48,8
     43,1246	     2873,57	49,1	     2887,85	49,0
     43,1276	     2868,74	49,0	      2880,9	49,0
     43,1305	     2862,65	49,2	     2873,94	49,1
     43,1334	     2854,63	49,2	     2869,57	49,4
     43,1364	     2844,97	49,5	     2862,46	49,2
     43,1393	     2842,44	49,6	     2851,81	49,4
     43,1422	      2835,8	49,2	     2850,14	49,2
     43,1452	     2827,82	49,3	     2845,68	49,3
     43,1481	     2820,72	49,5	     2833,43	49,6
      43,151	     2814,69	49,6	     2828,34	49,3
      43,154	     2809,06	49,7	     2824,48	49,6
     43,1569	     2802,03	49,6	      2816,7	49,9
     43,1598	     2796,99	49,8	     2808,71	49,7
     43,1628	     2791,52	50,0	     2799,56	49,7
     43,1657	     2783,83	49,6	     2797,73	49,8
     43,1686	     2771,65	50,0	     2793,09	49,6
     43,1716	      2771,9	50,1	      2783,8	49,8
     43,1745	     2764,67	50,0	     2772,89	49,5
     43,1774	     2754,87	50,1	     2770,32	50,2
     43,1804	     2749,93	50,1	     2765,16	50,2
     43,1833	     2743,83	49,9	     2759,14	49,8
     43,1862	     2739,65	50,2	     2749,08	50,2
     43,1891	     2732,13	50,0	     2744,53	50,2
     43,1921	     2723,77	50,4	     2739,88	49,9
      43,195	     2720,12	50,4	     2732,41	50,2
     43,1979	     2714,34	49,9	     2722,52	50,2
     43,2009	      2707,3	50,6	     2721,44	50,2
     43,2038	     2701,12	50,5	     2712,61	50,3
     43,2067	     2699,22	50,1	     2708,65	50,4
     43,2097	     2690,38	50,8	     2699,59	50,3
     43,2126	     2684,26	50,6	     2692,14	50,6
     43,2155	     2676,63	50,5	     2691,28	50,4
     43,2185	     2671,58	50,9	     2683,72	50,7
     43,2214	     2663,25	50,7	     2674,64	50,8
     43,2243	     2658,74	50,9	     2667,78	50,4
     43,2273	     2650,83	51,0	     2665,53	50,9
     43,2302	     2646,61	50,7	     2658,18	50,9
     43,2331	     2639,59	50,9	     2650,11	50,4
     43,2361	     2637,32	51,1	     2646,57	51,1
      43,239	     2628,27	50,8	     2640,27	50,8
     43,2419	     2623,06	51,3	     2631,79	50,8
     43,2449	     2621,48	51,1	     2625,59	51,1
     43,2478	     2613,36	50,8	     2621,38	51,1
     43,2507	     2606,74	51,2	      2616,9	51,0
     43,2537	     2600,54	51,3	     2611,55	51,1
     43,2566	     2590,92	51,0	     2601,52	50,9
     43,2595	     2587,12	51,4	     2599,63	51,2
     43,2625	     2587,06	51,5	     2591,57	51,2
     43,2654	     2577,48	51,1	     2586,71	51,3
     43,2683	     2570,34	51,5	     2582,14	51,4
     43,2713	     2566,33	51,5	     2573,59	51,5
     43,2742	     2559,54	51,3	     2566,91	51,2
     43,2771	     2552,74	51,7	     2562,48	51,7
     43,2801	     2549,81	51,5	     2557,66	51,6
      43,283	     2544,18	51,4	     2551,96	51,2
     43,2859	     2535,26	51,7	     2543,94	51,7
     43,2889	     2532,04	51,8	      2540,7	51,8
     43,2918	      2527,8	52,0	     2533,43	51,3
     43,2947	     2519,57	51,9	     2528,76	51,7
     43,2977	     2511,99	51,7	     2520,83	51,7
     43,3006	     2508,82	51,9	     2514,79	51,4
     43,3035	     2502,84	51,9	     2513,19	52,0
     43,3064	     2500,03	52,1	     2507,42	51,7
     43,3094	     2490,11	52,2	     2500,67	51,6
     43,3123	     2485,08	52,2	     2495,06	52,1
     43,3153	     2483,59	51,9	     2487,64	52,2
     43,3182	     2475,06	52,1	     2483,14	51,8
     43,3211	     2471,98	52,3	     2476,64	52,0
      43,324	     2465,47	52,0	     2470,21	51,9
      43,327	      2457,8	52,2	     2462,32	51,9
     43,3299	     2452,34	52,5	     2462,42	52,2
     43,3328	     2448,61	52,1	     2456,56	52,4
     43,3358	     2443,74	52,8	     2451,62	52,1
     43,3387	     2434,87	52,7	     2445,59	52,4
     43,3416	     2430,22	52,2	     2439,68	52,5
     43,3446	     2426,55	52,4	      2435,4	52,2
     43,3475	     2423,57	52,4	     2426,81	52,3
     43,3504	     2416,53	52,2	     2423,04	52,5
     43,3534	     2407,15	52,6	     2418,05	52,3
     43,3563	     2404,38	52,8	     2411,64	52,4
     43,3592	     2399,61	52,4	     2408,69	52,7
     43,3622	     2395,52	52,5	      2404,3	52,5
     43,3651	     2393,06	52,9	     2396,15	52,5
      43,368	     2385,75	52,7	     2392,84	53,1
      43,371	     2377,03	52,7	     2381,74	52,4
     43,3739	     2376,03	53,2	     2379,67	52,3
     43,3768	     2368,88	52,8	     2371,11	52,6
     43,3798	     2362,76	52,7	     2367,55	52,6
     43,3827	     2359,62	53,2	     2366,32	52,8
     43,3856	     2354,75	52,8	     2362,75	53,0
     43,3886	     2346,27	52,7	      2352,8	52,9
     43,3915	     2343,51	53,2	     2349,02	53,0
     43,3944	     2336,76	53,0	     2343,54	53,0
     43,3974	     2332,44	52,9	     2333,55	52,9
     43,4003	     2330,54	53,4	     2336,23	53,1
     43,4032	     2321,49	53,2	     2331,25	52,7
     43,4062	     2314,45	53,0	     2321,61	53,1
     43,4091	     2314,05	53,2	     2317,71	52,8
      43,412	     2308,17	53,3	     2315,85	53,2
      43,415	     2299,02	53,0	     2305,87	53,2
     43,4179	     2298,62	53,4	     2305,86	53,0
     43,4208	     2293,71	53,5	     2298,86	53,2
     43,4238	      2288,3	53,6	     2293,34	53,5
     43,4267	     2281,69	53,4	     2289,27	53,1
     43,4296	     2278,16	53,4	     2290,24	53,4
     43,4326	     2275,58	53,5	     2277,46	53,7
     43,4355	     2270,56	53,4	     2272,34	53,5
     43,4384	     2261,05	53,4	     2271,89	53,4
     43,4413	     2260,82	53,5	     2264,88	53,8
     43,4443	     2256,07	53,6	     2255,49	53,3
     43,4472	     2246,74	53,6	     2254,04	53,4
     43,4501	     2247,78	53,9	     2251,44	53,5
     43,4531	     2240,62	53,7	     2246,59	53,7
      43,456	     2232,37	53,7	     2239,04	53,5
     43,4589	     2232,76	53,9	     2233,07	53,8
     43,4619	     2225,44	53,8	     2228,66	53,8
     43,4648	     2218,91	53,6	     2222,78	53,8
     43,4677	     2214,76	54,0	     2219,42	53,5
     43,4707	     2211,06	53,9	      2213,7	53,7
     43,4736	     2207,88	53,6	     2207,94	53,9
     43,4765	     2205,66	54,1	     2205,43	53,5
     43,4795	     2197,96	54,0	     2202,64	54,0
     43,4824	     2191,99	54,0	     2194,68	54,0
     43,4853	     2188,48	54,2	     2188,76	53,8
     43,4883	     2190,16	54,2	     2188,13	54,0
     43,4912	     2177,89	54,3	     2181,65	54,1
     43,4941	     2174,87	54,0	     2174,32	53,8
     43,4971	     2171,55	54,3	     2173,35	54,0
        43,5	     2167,25	54,1	     2166,91	54,2

