X-Data [Hz]	Laser (M - Filtered) [m/s]	Phase [Deg]	
	002: [07-05-24 16:37]	
       41,25	  0,00338078	75,0
     41,2522	  0,00370999	72,9
     41,2544	  0,00369469	72,8
     41,2566	  0,00364334	74,5
     41,2588	  0,00366631	68,6
      41,261	  0,00358355	72,1
     41,2632	  0,00356253	77,0
     41,2654	  0,00378487	67,0
     41,2676	  0,00356344	73,6
     41,2698	  0,00350814	75,7
      41,272	  0,00371879	72,3
     41,2742	  0,00381973	76,2
     41,2764	  0,00354717	67,1
     41,2786	  0,00363272	75,1
     41,2808	  0,00376623	75,5
      41,283	   0,0036736	65,5
     41,2852	  0,00359466	74,0
     41,2874	  0,00357994	74,2
     41,2896	  0,00372679	68,7
     41,2918	  0,00369733	79,7
      41,294	  0,00373127	71,9
     41,2962	  0,00379132	72,0
     41,2984	  0,00379135	68,7
     41,3006	  0,00366413	72,8
     41,3028	  0,00359641	73,3
      41,305	  0,00378611	75,3
     41,3072	  0,00373308	74,9
     41,3094	  0,00375089	69,3
     41,3116	  0,00371625	72,3
     41,3138	  0,00367332	72,7
      41,316	  0,00375728	78,0
     41,3182	  0,00376821	74,7
     41,3204	   0,0037103	70,3
     41,3226	  0,00378118	73,5
     41,3248	  0,00383222	75,2
      41,327	  0,00382218	69,9
     41,3292	   0,0037702	73,5
     41,3314	  0,00364585	74,1
     41,3336	  0,00382377	70,7
     41,3358	  0,00391237	75,6
      41,338	  0,00394145	66,1
     41,3402	  0,00372814	72,4
     41,3424	  0,00380589	73,9
     41,3446	  0,00385184	72,1
     41,3468	  0,00380729	74,0
      41,349	  0,00374258	72,6
     41,3512	  0,00390062	71,0
     41,3534	  0,00393255	72,3
     41,3556	  0,00376132	73,2
     41,3578	  0,00371067	73,6
       41,36	  0,00393543	76,1
     41,3622	  0,00392683	71,6
     41,3644	  0,00394525	76,0
     41,3666	  0,00381284	70,9
     41,3688	  0,00378372	73,6
      41,371	  0,00398797	76,9
     41,3732	  0,00397014	71,8
     41,3754	  0,00376222	74,9
     41,3776	  0,00390031	75,0
     41,3798	  0,00389975	72,3
      41,382	   0,0037967	70,5
     41,3842	  0,00389663	77,0
     41,3864	  0,00395638	71,0
     41,3886	  0,00390298	73,5
     41,3908	  0,00386121	70,0
      41,393	  0,00399292	77,5
     41,3952	  0,00396592	71,4
     41,3974	  0,00393918	67,5
     41,3996	  0,00381366	81,1
     41,4018	  0,00398367	69,7
      41,404	  0,00389751	72,5
     41,4062	  0,00395589	76,9
     41,4084	  0,00399763	71,2
     41,4106	  0,00404946	73,5
     41,4128	   0,0039184	73,5
      41,415	  0,00391506	71,6
     41,4172	  0,00404144	75,6
     41,4194	  0,00403264	73,9
     41,4216	  0,00400555	73,6
     41,4238	  0,00393109	77,5
      41,426	  0,00393663	71,5
     41,4282	  0,00396682	76,2
     41,4304	  0,00402033	74,2
     41,4326	   0,0039925	69,6
     41,4347	   0,0040044	77,9
      41,437	  0,00405094	74,3
     41,4391	  0,00409217	71,2
     41,4413	  0,00404126	79,2
     41,4436	  0,00401049	72,6
     41,4457	  0,00395695	77,6
     41,4479	   0,0040603	73,1
     41,4501	  0,00409758	74,0
     41,4523	  0,00398468	75,2
     41,4545	  0,00405387	70,5
     41,4567	  0,00411746	74,6
     41,4589	  0,00412399	74,4
     41,4611	  0,00422708	71,8
     41,4633	  0,00405461	75,2
     41,4655	  0,00407339	75,4
     41,4677	   0,0041391	76,3
     41,4699	  0,00406735	70,8
     41,4721	  0,00402606	73,1
     41,4743	  0,00411747	76,1
     41,4765	  0,00415959	71,1
     41,4787	  0,00420533	74,2
     41,4809	  0,00416471	73,6
     41,4831	  0,00406153	73,6
     41,4853	  0,00414493	75,8
     41,4875	  0,00414624	76,1
     41,4897	  0,00411355	68,6
     41,4919	  0,00413685	71,4
     41,4941	  0,00427393	74,3
     41,4963	  0,00425993	77,1
     41,4985	  0,00424616	70,8
     41,5007	  0,00416396	76,2
     41,5029	  0,00408867	73,3
     41,5051	  0,00415816	75,5
     41,5073	  0,00423315	80,1
     41,5095	  0,00425413	72,2
     41,5117	  0,00416167	71,3
     41,5139	  0,00418306	78,5
     41,5161	   0,0043221	70,1
     41,5183	  0,00431175	73,4
     41,5205	  0,00422157	74,9
     41,5227	  0,00429422	70,6
     41,5249	  0,00432016	72,8
     41,5271	  0,00424057	77,9
     41,5293	  0,00427752	77,2
     41,5315	    0,004247	71,9
     41,5337	  0,00438141	78,0
     41,5359	  0,00444912	75,0
     41,5381	  0,00433769	68,1
     41,5403	  0,00420074	76,8
     41,5425	  0,00428097	75,8
     41,5447	  0,00436053	76,2
     41,5469	  0,00438438	74,2
     41,5491	  0,00434902	74,9
     41,5513	  0,00428278	75,8
     41,5535	  0,00437449	68,4
     41,5557	  0,00435581	76,2
     41,5579	  0,00442979	73,2
     41,5601	    0,004462	73,2
     41,5623	  0,00434721	77,7
     41,5645	  0,00441422	68,8
     41,5667	  0,00430225	78,9
     41,5689	    0,004413	74,0
     41,5711	  0,00449727	70,8
     41,5733	  0,00437134	77,7
     41,5755	  0,00440736	74,4
     41,5777	  0,00454713	75,8
     41,5799	  0,00445217	74,1
     41,5821	  0,00436253	78,3
     41,5843	  0,00441718	74,3
     41,5865	   0,0045395	74,6
     41,5887	  0,00452646	76,5
     41,5909	   0,0044142	69,6
     41,5931	  0,00445933	78,4
     41,5953	  0,00460812	75,9
     41,5975	  0,00456173	70,9
     41,5997	  0,00457605	76,0
     41,6019	  0,00450059	74,3
     41,6041	  0,00434499	78,0
     41,6063	  0,00445377	73,4
     41,6085	  0,00458116	79,2
     41,6107	  0,00456639	74,3
     41,6129	   0,0046376	73,0
     41,6151	  0,00465994	76,8
     41,6173	  0,00456378	71,9
     41,6195	  0,00460595	79,2
     41,6217	  0,00459698	74,7
     41,6239	  0,00454082	70,3
     41,6261	  0,00451758	73,9
     41,6283	  0,00460879	75,5
     41,6305	  0,00465067	78,5
     41,6327	  0,00457391	70,2
     41,6349	  0,00465502	76,0
     41,6371	  0,00466365	79,2
     41,6393	  0,00458137	72,9
     41,6415	  0,00463734	78,7
     41,6437	  0,00464916	78,7
     41,6459	  0,00470464	80,2
     41,6481	  0,00473561	70,9
     41,6503	  0,00474791	79,1
     41,6525	  0,00463777	75,0
     41,6547	   0,0046357	69,7
     41,6569	  0,00469553	77,6
     41,6591	  0,00467566	74,5
     41,6613	  0,00477339	77,8
     41,6635	  0,00482392	73,6
     41,6657	  0,00468353	77,4
     41,6679	  0,00464268	76,9
     41,6701	  0,00483919	73,6
     41,6723	  0,00483241	76,6
     41,6745	  0,00473302	77,3
     41,6767	  0,00482861	74,7
     41,6789	  0,00479395	70,9
     41,6811	  0,00471552	79,6
     41,6833	  0,00478639	76,8
     41,6855	  0,00492103	74,1
     41,6877	  0,00480279	77,4
     41,6899	  0,00476893	71,0
     41,6921	  0,00479513	74,8
     41,6943	   0,0048831	74,7
     41,6965	  0,00484461	80,0
     41,6987	  0,00477905	73,4
     41,7009	  0,00486589	78,2
     41,7031	  0,00487054	76,4
     41,7053	  0,00490424	71,9
     41,7075	  0,00494867	77,5
     41,7097	  0,00487621	74,4
     41,7119	  0,00491769	76,1
     41,7141	  0,00495939	76,2
     41,7163	  0,00488373	76,5
     41,7185	  0,00495554	77,1
     41,7207	   0,0049816	76,1
     41,7229	  0,00493522	72,1
     41,7251	   0,0048725	79,6
     41,7273	  0,00496421	80,9
     41,7295	  0,00518542	71,8
     41,7317	  0,00504879	77,7
     41,7339	  0,00496587	75,6
     41,7361	  0,00497344	74,3
     41,7383	  0,00495267	80,0
     41,7405	  0,00498146	79,2
     41,7427	  0,00512462	79,9
     41,7449	   0,0052043	76,5
     41,7471	  0,00513603	75,9
     41,7493	  0,00500776	71,5
     41,7515	  0,00490628	79,6
     41,7537	  0,00519099	77,7
     41,7559	  0,00518164	75,8
     41,7581	  0,00520308	76,4
     41,7603	  0,00514862	77,1
     41,7625	  0,00517587	79,2
     41,7647	  0,00518239	73,4
     41,7669	  0,00513426	77,4
     41,7691	   0,0051188	74,3
     41,7713	  0,00521144	83,4
     41,7735	  0,00532116	73,7
     41,7757	   0,0053515	78,5
     41,7779	  0,00521946	78,8
     41,7801	   0,0051646	73,9
     41,7823	  0,00520941	79,3
     41,7845	  0,00530353	74,8
     41,7867	  0,00528891	80,2
     41,7889	  0,00534034	73,5
     41,7911	  0,00530642	78,5
     41,7933	  0,00525362	76,9
     41,7955	  0,00521798	79,8
     41,7977	  0,00530893	72,1
     41,7999	  0,00534066	80,1
     41,8021	  0,00532619	81,6
     41,8043	  0,00537959	75,1
     41,8064	  0,00537707	77,5
     41,8087	  0,00537469	77,8
     41,8109	  0,00533797	81,8
      41,813	  0,00544029	75,1
     41,8153	   0,0054661	81,9
     41,8174	  0,00543995	78,8
     41,8196	   0,0054562	80,3
     41,8218	  0,00539023	73,3
      41,824	  0,00541356	81,1
     41,8262	   0,0054543	79,5
     41,8284	  0,00546723	77,3
     41,8306	  0,00550489	79,5
     41,8328	   0,0053272	76,5
      41,835	   0,0053672	81,2
     41,8372	  0,00555987	77,9
     41,8394	  0,00554153	77,9
     41,8416	   0,0055287	77,4
     41,8438	   0,0055197	82,3
      41,846	  0,00554096	76,3
     41,8482	  0,00567405	81,8
     41,8504	  0,00567434	75,8
     41,8526	  0,00564257	75,0
     41,8548	  0,00553066	79,0
      41,857	   0,0054667	76,1
     41,8592	  0,00562809	79,3
     41,8614	  0,00568656	75,3
     41,8636	  0,00565499	85,9
     41,8658	  0,00566085	76,1
      41,868	  0,00569605	81,7
     41,8702	  0,00564924	74,8
     41,8724	  0,00571024	86,8
     41,8746	  0,00580838	76,8
     41,8768	  0,00584441	78,2
      41,879	   0,0057776	77,3
     41,8812	  0,00571939	78,1
     41,8834	  0,00579456	78,2
     41,8856	  0,00579669	75,4
     41,8878	  0,00587341	82,2
       41,89	  0,00588083	76,7
     41,8922	  0,00580794	78,4
     41,8944	   0,0058422	78,5
     41,8966	  0,00581083	82,0
     41,8988	  0,00587269	77,2
      41,901	  0,00593755	80,5
     41,9032	  0,00588681	76,6
     41,9054	  0,00582165	81,5
     41,9076	  0,00588151	77,8
     41,9098	  0,00603688	78,9
      41,912	  0,00599648	77,1
     41,9142	  0,00592669	79,1
     41,9164	  0,00593405	78,4
     41,9186	   0,0059532	84,0
     41,9208	  0,00609391	77,1
      41,923	  0,00609161	84,6
     41,9252	  0,00599726	78,0
     41,9274	  0,00611495	81,9
     41,9296	  0,00616873	79,8
     41,9318	  0,00612137	80,7
      41,934	  0,00606582	79,9
     41,9362	  0,00611039	77,5
     41,9384	  0,00608289	83,9
     41,9406	    0,006005	80,3
     41,9428	  0,00609138	81,8
      41,945	  0,00619738	77,8
     41,9472	  0,00619744	82,9
     41,9494	  0,00616123	80,0
     41,9516	   0,0062748	81,7
     41,9538	  0,00622532	73,7
      41,956	  0,00622108	82,1
     41,9582	  0,00624396	79,0
     41,9604	  0,00634662	81,9
     41,9626	   0,0063891	78,6
     41,9648	  0,00640417	82,4
      41,967	  0,00640351	80,2
     41,9692	  0,00633871	79,2
     41,9714	  0,00635395	80,1
     41,9736	  0,00630722	80,8
     41,9758	   0,0063528	83,9
      41,978	  0,00646487	82,9
     41,9802	  0,00639384	74,4
     41,9824	  0,00645665	85,1
     41,9846	  0,00660704	81,5
     41,9868	  0,00657087	81,1
      41,989	  0,00648347	78,1
     41,9912	  0,00650766	80,0
     41,9934	  0,00647871	82,0
     41,9956	  0,00644171	79,9
     41,9978	  0,00645917	80,8
          42	  0,00656501	81,6
     42,0022	  0,00659917	86,0
     42,0044	  0,00662121	86,4
     42,0066	  0,00669856	80,0
     42,0088	   0,0066921	80,0
      42,011	  0,00665161	81,1
     42,0132	  0,00656877	83,1
     42,0154	  0,00670544	85,5
     42,0176	  0,00686955	79,2
     42,0198	   0,0068543	85,0
      42,022	  0,00683355	80,4
     42,0242	   0,0067168	80,6
     42,0264	  0,00665301	79,0
     42,0286	  0,00663603	90,0
     42,0308	  0,00683776	79,9
      42,033	  0,00693138	80,8
     42,0352	  0,00687154	82,5
     42,0374	  0,00701194	81,0
     42,0396	   0,0069747	86,9
     42,0418	  0,00696321	80,2
      42,044	   0,0069087	81,6
     42,0462	  0,00701438	81,3
     42,0484	  0,00710465	85,9
     42,0506	  0,00715762	81,9
     42,0528	  0,00709427	79,2
      42,055	  0,00715395	83,4
     42,0572	  0,00715396	84,5
     42,0594	  0,00715297	85,3
     42,0616	  0,00709372	79,8
     42,0638	  0,00721495	87,8
      42,066	  0,00731941	85,2
     42,0682	  0,00717544	82,3
     42,0704	  0,00720807	85,6
     42,0726	  0,00724079	80,3
     42,0748	  0,00725245	84,8
      42,077	  0,00727996	86,3
     42,0792	  0,00740516	84,2
     42,0814	  0,00736664	83,1
     42,0836	  0,00737558	80,5
     42,0858	  0,00729912	84,7
      42,088	  0,00735519	85,3
     42,0902	  0,00736059	83,2
     42,0924	  0,00739555	86,4
     42,0946	  0,00742266	86,5
     42,0968	  0,00748515	85,7
      42,099	  0,00752781	82,7
     42,1012	  0,00752576	80,6
     42,1034	  0,00751305	83,7
     42,1056	   0,0074762	85,7
     42,1078	   0,0075629	84,6
       42,11	  0,00767072	88,6
     42,1122	  0,00770283	80,2
     42,1144	  0,00764712	85,9
     42,1166	  0,00764928	85,2
     42,1188	  0,00763465	87,9
      42,121	  0,00776012	80,2
     42,1232	  0,00779797	89,5
     42,1254	  0,00780922	85,7
     42,1276	  0,00788015	89,8
     42,1298	  0,00789281	81,7
      42,132	  0,00779273	82,9
     42,1342	  0,00781847	88,0
     42,1364	  0,00783872	86,7
     42,1386	  0,00789063	87,5
     42,1408	  0,00798184	86,1
      42,143	  0,00804163	86,7
     42,1452	  0,00808832	87,1
     42,1474	  0,00809957	89,0
     42,1496	  0,00815762	80,5
     42,1518	    0,008163	89,3
      42,154	   0,0080935	85,3
     42,1562	   0,0080307	89,5
     42,1584	  0,00799427	85,0
     42,1606	  0,00813076	85,0
     42,1628	  0,00825179	89,3
      42,165	  0,00835581	90,5
     42,1672	  0,00838815	86,6
     42,1694	  0,00834496	85,5
     42,1716	  0,00835763	84,8
     42,1738	  0,00834988	92,5
      42,176	  0,00837164	85,6
     42,1782	  0,00842358	91,0
     42,1804	   0,0083976	86,2
     42,1826	  0,00841739	88,1
     42,1847	  0,00852326	87,3
      42,187	  0,00852432	90,7
     42,1891	  0,00861008	86,0
     42,1913	  0,00866743	89,2
     42,1936	  0,00872194	87,2
     42,1957	  0,00870677	91,4
     42,1979	  0,00884863	89,5
     42,2001	  0,00890837	87,2
     42,2023	  0,00891385	89,3
     42,2045	  0,00885533	90,6
     42,2067	  0,00875011	90,6
     42,2089	  0,00884058	86,2
     42,2111	  0,00890712	92,5
     42,2133	  0,00894579	82,3
     42,2155	  0,00892303	93,8
     42,2177	  0,00894466	86,2
     42,2199	  0,00898911	92,8
     42,2221	  0,00903212	83,6
     42,2243	  0,00914252	92,0
     42,2265	  0,00918597	91,0
     42,2287	  0,00921231	91,7
     42,2309	  0,00924788	92,4
     42,2331	  0,00922882	87,7
     42,2353	  0,00930136	91,7
     42,2375	  0,00936564	88,4
     42,2397	  0,00931486	92,4
     42,2419	   0,0093361	88,8
     42,2441	  0,00942155	90,2
     42,2463	  0,00945178	92,7
     42,2485	  0,00949803	95,2
     42,2507	  0,00940142	88,6
     42,2529	  0,00943422	91,8
     42,2551	  0,00957452	90,6
     42,2573	  0,00970376	91,1
     42,2595	   0,0097204	95,8
     42,2617	  0,00981305	92,7
     42,2639	  0,00989241	93,6
     42,2661	  0,00993114	89,6
     42,2683	  0,00993725	94,7
     42,2705	  0,00993445	92,2
     42,2727	  0,00992856	97,9
     42,2749	   0,0100422	88,8
     42,2771	    0,010152	96,1
     42,2793	    0,010191	89,5
     42,2815	   0,0101592	100,7
     42,2837	   0,0101586	93,5
     42,2859	   0,0102772	96,4
     42,2881	   0,0102881	88,7
     42,2903	   0,0102726	89,5
     42,2925	   0,0103119	99,2
     42,2947	   0,0103966	94,4
     42,2969	   0,0104504	97,5
     42,2991	   0,0104841	91,5
     42,3013	   0,0104621	94,9
     42,3035	   0,0104978	92,0
     42,3057	   0,0105767	103,0
     42,3079	   0,0106402	94,4
     42,3101	    0,010811	100,6
     42,3123	   0,0108092	94,7
     42,3145	   0,0108682	94,3
     42,3167	   0,0108908	102,2
     42,3189	   0,0109601	92,0
     42,3211	   0,0110607	101,8
     42,3233	   0,0110469	93,5
     42,3255	   0,0110187	100,4
     42,3277	   0,0111085	96,3
     42,3299	   0,0111928	103,3
     42,3321	   0,0112972	94,3
     42,3343	   0,0112964	98,0
     42,3365	   0,0113532	97,6
     42,3387	   0,0114417	94,0
     42,3409	   0,0114477	103,1
     42,3431	    0,011412	95,6
     42,3453	    0,011506	100,6
     42,3475	     0,01153	95,8
     42,3497	   0,0115809	99,4
     42,3519	   0,0116131	99,0
     42,3541	   0,0117181	103,3
     42,3563	   0,0118455	98,0
     42,3585	   0,0119581	99,7
     42,3607	   0,0120761	102,0
     42,3629	   0,0121041	96,8
     42,3651	   0,0120011	100,5
     42,3673	   0,0120006	105,2
     42,3695	   0,0121047	101,0
     42,3717	   0,0121648	102,8
     42,3739	     0,01224	99,6
     42,3761	   0,0122293	107,7
     42,3783	   0,0122153	100,2
     42,3805	   0,0123544	105,8
     42,3827	   0,0124693	97,4
     42,3849	   0,0124898	106,9
     42,3871	   0,0124978	102,8
     42,3893	   0,0126198	109,3
     42,3915	   0,0127307	105,6
     42,3937	   0,0127652	101,9
     42,3959	   0,0127837	103,8
     42,3981	   0,0128855	103,1
     42,4003	    0,012953	111,2
     42,4025	   0,0130585	106,4
     42,4047	   0,0130671	107,3
     42,4069	    0,013158	105,5
     42,4091	   0,0131452	100,4
     42,4113	   0,0131737	108,2
     42,4135	   0,0132784	103,9
     42,4157	    0,013339	112,4
     42,4179	   0,0134137	103,4
     42,4201	   0,0134826	110,6
     42,4223	    0,013582	109,6
     42,4245	   0,0137012	104,2
     42,4267	     0,01383	113,2
     42,4289	   0,0139295	107,7
     42,4311	   0,0139469	114,5
     42,4333	   0,0140204	105,2
     42,4355	   0,0140442	111,4
     42,4377	   0,0141885	107,2
     42,4399	    0,014229	110,9
     42,4421	   0,0143126	111,9
     42,4443	   0,0143961	109,5
     42,4465	   0,0143414	113,0
     42,4487	   0,0144325	112,5
     42,4509	    0,014536	112,1
     42,4531	   0,0146151	116,1
     42,4553	    0,014672	111,7
     42,4575	   0,0146879	116,4
     42,4597	   0,0147558	111,1
     42,4619	   0,0147785	116,4
     42,4641	   0,0149882	111,2
     42,4663	   0,0150417	115,1
     42,4685	    0,015039	122,1
     42,4707	   0,0151447	115,6
     42,4729	    0,015274	119,5
     42,4751	   0,0152583	111,0
     42,4773	   0,0153765	120,2
     42,4795	   0,0154528	116,6
     42,4817	   0,0155543	121,2
     42,4839	     0,01562	117,6
     42,4861	   0,0156701	115,6
     42,4883	   0,0157409	118,9
     42,4905	    0,015849	118,7
     42,4927	   0,0159248	120,0
     42,4949	   0,0159252	124,3
     42,4971	   0,0159591	121,7
     42,4993	   0,0159832	122,1
     42,5015	   0,0160987	118,0
     42,5037	   0,0161693	121,6
     42,5059	   0,0162379	120,6
     42,5081	   0,0163116	125,3
     42,5103	   0,0163839	124,0
     42,5125	   0,0164607	123,4
     42,5147	   0,0165655	123,5
     42,5169	   0,0165822	123,4
     42,5191	   0,0167078	123,3
     42,5213	   0,0167508	126,2
     42,5235	   0,0168362	126,1
     42,5257	   0,0168968	129,6
     42,5279	   0,0169669	127,6
     42,5301	   0,0169822	129,4
     42,5323	   0,0171517	125,2
     42,5345	   0,0171697	128,3
     42,5367	    0,017198	132,3
     42,5389	   0,0171885	128,9
     42,5411	   0,0172091	135,1
     42,5433	   0,0173329	126,0
     42,5455	   0,0173778	129,5
     42,5477	   0,0174579	133,4
     42,5499	   0,0175323	128,5
     42,5521	   0,0176186	135,4
     42,5543	   0,0176422	132,4
     42,5564	   0,0176912	134,8
     42,5587	   0,0177202	137,3
     42,5609	    0,017748	131,9
      42,563	   0,0178497	140,7
     42,5653	   0,0179149	136,4
     42,5674	   0,0180496	132,7
     42,5696	   0,0180954	138,3
     42,5718	   0,0180536	137,3
      42,574	   0,0180792	141,1
     42,5762	   0,0181089	140,4
     42,5784	   0,0181277	135,4
     42,5806	   0,0181586	142,5
     42,5828	   0,0182758	135,5
      42,585	   0,0182201	143,7
     42,5872	   0,0183183	141,6
     42,5894	   0,0183074	142,6
     42,5916	   0,0183171	139,5
     42,5938	   0,0184335	139,0
      42,596	   0,0184765	146,0
     42,5982	   0,0185286	141,6
     42,6004	   0,0185279	148,5
     42,6026	   0,0185102	147,8
     42,6048	   0,0185387	143,6
      42,607	   0,0184863	146,6
     42,6092	   0,0185396	146,6
     42,6114	   0,0184293	145,3
     42,6136	     0,01849	150,7
     42,6158	   0,0185815	144,2
      42,618	   0,0186124	155,4
     42,6202	   0,0185381	150,6
     42,6224	   0,0186047	150,6
     42,6246	   0,0186497	152,4
     42,6268	   0,0186903	152,3
      42,629	   0,0186713	147,2
     42,6312	   0,0186782	153,5
     42,6334	   0,0187311	150,8
     42,6356	   0,0187839	158,1
     42,6378	   0,0188335	155,4
       42,64	   0,0187624	157,3
     42,6422	   0,0187923	157,6
     42,6444	   0,0188367	147,0
     42,6466	   0,0188378	158,7
     42,6488	   0,0187277	154,8
      42,651	    0,018722	158,1
     42,6532	   0,0186945	158,3
     42,6554	   0,0186747	158,5
     42,6576	   0,0186641	160,9
     42,6598	   0,0186251	162,9
      42,662	   0,0185877	153,3
     42,6642	    0,018579	160,1
     42,6664	   0,0185802	156,8
     42,6686	   0,0185856	158,3
     42,6708	   0,0185223	166,6
      42,673	   0,0185456	160,8
     42,6752	   0,0184854	165,8
     42,6774	    0,018473	167,9
     42,6796	   0,0183822	163,8
     42,6818	   0,0184075	164,5
      42,684	   0,0184533	163,1
     42,6862	   0,0185039	163,8
     42,6884	   0,0185111	169,9
     42,6906	   0,0183622	163,3
     42,6928	   0,0182728	169,1
      42,695	   0,0182038	167,8
     42,6972	   0,0181426	164,6
     42,6994	   0,0180774	171,7
     42,7016	   0,0180581	162,9
     42,7038	   0,0180045	169,1
      42,706	    0,017992	171,5
     42,7082	   0,0180272	171,0
     42,7104	    0,017994	167,1
     42,7126	   0,0179524	175,2
     42,7148	   0,0178665	170,7
      42,717	   0,0177618	173,2
     42,7192	   0,0177612	175,3
     42,7214	   0,0176901	167,8
     42,7236	    0,017658	174,6
     42,7258	   0,0175962	169,5
      42,728	   0,0175889	175,4
     42,7302	   0,0175265	177,9
     42,7324	   0,0174767	173,2
     42,7346	   0,0174448	177,1
     42,7368	   0,0174076	175,9
      42,739	   0,0172761	173,3
     42,7412	   0,0173227	176,8
     42,7434	   0,0171859	174,3
     42,7456	    0,017003	179,3
     42,7478	   0,0169608	178,1
       42,75	   0,0169048	176,1
     42,7522	   0,0168213	175,6
     42,7544	   0,0167705	183,3
     42,7566	   0,0167418	178,0
     42,7588	   0,0167025	180,9
      42,761	   0,0166696	180,2
     42,7632	   0,0166315	174,3
     42,7654	   0,0165461	181,8
     42,7676	   0,0165166	179,4
     42,7698	   0,0164721	175,5
      42,772	   0,0164379	186,4
     42,7742	   0,0163634	182,2
     42,7764	   0,0162713	187,4
     42,7786	   0,0162675	188,8
     42,7808	   0,0162069	183,8
      42,783	   0,0162003	183,8
     42,7852	   0,0160849	187,2
     42,7874	   0,0160573	181,6
     42,7896	   0,0159803	183,4
     42,7918	   0,0159081	185,2
      42,794	   0,0158379	181,5
     42,7962	   0,0157703	188,0
     42,7984	   0,0157468	184,8
     42,8006	   0,0156637	184,7
     42,8028	   0,0155453	189,5
      42,805	   0,0155654	190,1
     42,8072	   0,0155051	185,1
     42,8094	   0,0154853	191,1
     42,8116	   0,0153617	186,4
     42,8138	   0,0153634	187,5
      42,816	   0,0152402	192,0
     42,8182	   0,0151233	185,8
     42,8204	   0,0150918	194,5
     42,8226	   0,0150891	191,8
     42,8248	   0,0151013	188,4
      42,827	   0,0150158	189,0
     42,8292	   0,0149835	196,6
     42,8314	   0,0149437	194,3
     42,8336	   0,0147855	190,5
     42,8358	   0,0146985	192,9
      42,838	   0,0145697	188,3
     42,8402	   0,0144975	191,3
     42,8424	   0,0144474	193,3
     42,8446	   0,0143807	191,1
     42,8468	   0,0144124	197,6
      42,849	    0,014327	192,0
     42,8512	   0,0142237	194,7
     42,8534	   0,0141677	197,1
     42,8556	   0,0140705	196,8
     42,8578	   0,0140614	188,9
       42,86	   0,0140084	194,0
     42,8622	   0,0139601	189,7
     42,8644	   0,0139594	192,3
     42,8666	   0,0138607	194,9
     42,8688	   0,0138189	193,0
      42,871	   0,0137144	192,2
     42,8732	   0,0136793	197,0
     42,8754	   0,0136671	197,1
     42,8776	    0,013584	195,5
     42,8798	   0,0134897	-158,1
      42,882	   0,0134469	-163,3
     42,8842	   0,0133078	-161,9
     42,8864	   0,0133149	-166,8
     42,8886	   0,0133696	-160,1
     42,8908	   0,0132601	-166,1
      42,893	   0,0132213	-160,0
     42,8952	   0,0131789	-165,5
     42,8974	   0,0130417	-163,9
     42,8996	   0,0129876	-157,6
     42,9018	   0,0129544	-159,9
      42,904	   0,0128743	-157,3
     42,9062	   0,0127836	-156,0
     42,9084	   0,0127108	-160,7
     42,9106	   0,0126321	-160,6
     42,9128	   0,0126799	-158,9
      42,915	   0,0126216	-156,4
     42,9172	   0,0126155	-159,8
     42,9194	   0,0125975	-155,7
     42,9216	   0,0125321	-157,3
     42,9238	   0,0124347	-163,2
      42,926	   0,0123683	-157,3
     42,9282	   0,0122586	-161,6
     42,9304	   0,0122141	-161,9
     42,9326	   0,0122555	-154,5
     42,9347	   0,0121188	-159,3
      42,937	   0,0119808	-154,5
     42,9391	   0,0119084	-155,6
     42,9413	   0,0118476	-153,2
     42,9436	   0,0116982	-156,8
     42,9457	   0,0118073	-156,7
     42,9479	   0,0117512	-153,9
     42,9501	   0,0117662	-158,3
     42,9523	   0,0117028	-155,5
     42,9545	   0,0117282	-156,3
     42,9567	    0,011672	-160,0
     42,9589	   0,0116226	-155,3
     42,9611	   0,0115823	-159,1
     42,9633	   0,0115636	-156,3
     42,9655	   0,0114658	-148,1
     42,9677	   0,0113884	-154,8
     42,9699	   0,0112705	-155,9
     42,9721	   0,0112553	-152,1
     42,9743	   0,0111806	-146,5
     42,9765	   0,0110991	-152,6
     42,9787	   0,0110694	-150,6
     42,9809	   0,0111163	-148,6
     42,9831	   0,0110337	-153,7
     42,9853	    0,010924	-151,8
     42,9875	   0,0109301	-155,9
     42,9897	   0,0108728	-154,7
     42,9919	   0,0109125	-158,1
     42,9941	   0,0109061	-153,3
     42,9963	    0,010761	-155,7
     42,9985	   0,0106572	-155,2
     43,0007	   0,0106155	-149,2
     43,0029	   0,0105628	-154,3
     43,0051	   0,0105512	-153,5
     43,0073	    0,010522	-153,4
     43,0095	   0,0105141	-148,9
     43,0117	   0,0104876	-149,7
     43,0139	   0,0104858	-150,6
     43,0161	     0,01049	-147,5
     43,0183	   0,0104507	-151,4
     43,0205	   0,0103986	-149,0
     43,0227	   0,0102986	-151,4
     43,0249	   0,0102182	-153,5
     43,0271	   0,0101221	-147,9
     43,0293	   0,0100939	-148,0
     43,0315	   0,0100306	-147,4
     43,0337	   0,0100533	-154,0
     43,0359	   0,0100039	-147,3
     43,0381	   0,0100001	-150,3
     43,0403	   0,0100081	-152,4
     43,0425	  0,00991477	-147,9
     43,0447	  0,00981694	-149,7
     43,0469	  0,00981484	-151,9
     43,0491	   0,0097513	-148,5
     43,0513	  0,00966353	-146,3
     43,0535	   0,0096556	-153,8
     43,0557	   0,0097151	-148,0
     43,0579	   0,0097273	-144,8
     43,0601	  0,00967006	-144,5
     43,0623	  0,00952524	-150,1
     43,0645	  0,00946056	-142,7
     43,0667	  0,00943589	-141,9
     43,0689	  0,00935154	-150,3
     43,0711	  0,00929495	-143,0
     43,0733	  0,00931458	-142,4
     43,0755	  0,00922851	-149,1
     43,0777	  0,00918557	-146,4
     43,0799	  0,00912934	-144,2
     43,0821	   0,0091392	-153,8
     43,0843	   0,0090677	-151,1
     43,0865	  0,00907888	-147,7
     43,0887	  0,00911774	-146,0
     43,0909	  0,00911057	-150,6
     43,0931	  0,00908072	-147,3
     43,0953	  0,00897511	-142,7
     43,0975	  0,00888885	-149,7
     43,0997	  0,00880029	-150,0
     43,1019	  0,00878138	-143,3
     43,1041	  0,00875746	-149,8
     43,1063	  0,00875807	-144,9
     43,1085	  0,00869054	-139,6
     43,1107	  0,00872176	-141,3
     43,1129	  0,00866111	-146,6
     43,1151	  0,00868627	-146,6
     43,1173	  0,00863615	-139,7
     43,1195	  0,00855843	-141,6
     43,1217	  0,00850811	-147,4
     43,1239	  0,00851881	-139,4
     43,1261	  0,00846032	-140,7
     43,1283	  0,00850883	-142,5
     43,1305	  0,00842762	-142,2
     43,1327	  0,00832791	-144,3
     43,1349	  0,00827725	-149,0
     43,1371	  0,00829058	-143,9
     43,1393	  0,00832714	-141,9
     43,1415	  0,00833527	-141,0
     43,1437	  0,00827826	-148,7
     43,1459	  0,00823899	-141,8
     43,1481	  0,00825781	-142,8
     43,1503	  0,00830408	-148,3
     43,1525	  0,00818915	-144,8
     43,1547	  0,00814916	-137,9
     43,1569	  0,00807235	-148,0
     43,1591	  0,00801673	-146,9
     43,1613	  0,00803206	-143,3
     43,1635	   0,0079997	-144,2
     43,1657	  0,00794286	-143,6
     43,1679	  0,00790171	-149,0
     43,1701	  0,00791784	-140,8
     43,1723	  0,00785342	-145,9
     43,1745	  0,00782532	-144,4
     43,1767	  0,00775784	-141,5
     43,1789	  0,00778301	-143,5
     43,1811	  0,00778524	-149,6
     43,1833	  0,00775321	-139,9
     43,1855	  0,00767528	-142,6
     43,1877	  0,00767621	-145,4
     43,1899	  0,00772965	-146,0
     43,1921	  0,00774776	-138,8
     43,1943	  0,00761489	-141,2
     43,1965	  0,00741589	-144,2
     43,1987	  0,00740247	-142,2
     43,2009	  0,00740699	-137,6
     43,2031	  0,00731022	-140,4
     43,2053	  0,00740043	-145,1
     43,2075	  0,00741842	-140,5
     43,2097	  0,00742785	-136,6
     43,2119	  0,00747028	-139,4
     43,2141	  0,00735762	-142,8
     43,2163	  0,00733692	-135,0
     43,2185	  0,00724923	-138,0
     43,2207	  0,00716765	-138,3
     43,2229	  0,00709582	-140,1
     43,2251	  0,00707632	-135,4
     43,2273	  0,00715332	-138,7
     43,2295	  0,00716636	-141,0
     43,2317	  0,00710016	-138,3
     43,2339	  0,00706698	-136,3
     43,2361	   0,0070661	-145,8
     43,2383	  0,00708215	-138,8
     43,2405	  0,00701407	-135,8
     43,2427	  0,00693622	-139,6
     43,2449	  0,00690981	-143,6
     43,2471	  0,00692582	-137,8
     43,2493	  0,00688829	-137,9
     43,2515	  0,00690884	-136,7
     43,2537	  0,00690131	-142,6
     43,2559	   0,0069313	-135,1
     43,2581	  0,00680301	-133,1
     43,2603	  0,00681528	-140,4
     43,2625	  0,00687214	-142,6
     43,2647	  0,00686961	-136,8
     43,2669	  0,00676955	-140,5
     43,2691	   0,0066907	-133,9
     43,2713	   0,0066309	-141,0
     43,2735	  0,00661701	-136,4
     43,2757	   0,0066005	-134,5
     43,2779	  0,00655786	-137,1
     43,2801	  0,00662987	-140,5
     43,2823	  0,00662055	-135,4
     43,2845	  0,00661171	-138,0
     43,2867	  0,00664434	-142,3
     43,2889	  0,00662252	-138,6
     43,2911	  0,00650503	-131,2
     43,2933	   0,0064924	-139,7
     43,2955	  0,00644496	-139,3
     43,2977	   0,0063682	-139,2
     43,2999	  0,00639309	-134,7
     43,3021	  0,00645265	-135,4
     43,3043	  0,00645141	-137,4
     43,3064	  0,00633331	-139,3
     43,3087	  0,00626852	-135,2
     43,3109	  0,00618242	-133,0
      43,313	  0,00621314	-138,9
     43,3153	  0,00618962	-136,4
     43,3174	  0,00626938	-134,1
     43,3196	  0,00624131	-135,5
     43,3218	  0,00624686	-140,0
      43,324	  0,00627343	-131,2
     43,3262	  0,00626611	-136,2
     43,3284	  0,00623999	-135,7
     43,3306	  0,00621192	-135,0
     43,3328	  0,00607429	-137,5
      43,335	  0,00614226	-131,9
     43,3372	  0,00604936	-135,4
     43,3394	  0,00601898	-136,7
     43,3416	  0,00590592	-131,8
     43,3438	   0,0059047	-130,9
      43,346	  0,00587631	-134,8
     43,3482	  0,00591752	-136,2
     43,3504	  0,00598022	-133,9
     43,3526	   0,0059867	-134,5
     43,3548	  0,00599931	-132,2
      43,357	  0,00596108	-137,0
     43,3592	  0,00587287	-137,4
     43,3614	  0,00580638	-135,2
     43,3636	  0,00588003	-136,7
     43,3658	  0,00593191	-136,3
      43,368	  0,00588688	-135,1
     43,3702	   0,0058101	-133,5
     43,3724	  0,00576254	-136,4
     43,3746	  0,00571444	-139,0
     43,3768	  0,00569039	-133,5
      43,379	  0,00569232	-133,7
     43,3812	  0,00569418	-135,1
     43,3834	  0,00569298	-137,4
     43,3856	  0,00559116	-139,3
     43,3878	   0,0056606	-135,2
       43,39	  0,00572717	-137,9
     43,3922	  0,00575658	-136,2
     43,3944	  0,00571775	-136,6
     43,3966	  0,00564451	-134,6
     43,3988	  0,00567055	-135,4
      43,401	  0,00558028	-136,7
     43,4032	  0,00557434	-136,5
     43,4054	  0,00552257	-128,6
     43,4076	   0,0054029	-131,4
     43,4098	  0,00544378	-137,3
      43,412	  0,00553617	-139,5
     43,4142	  0,00551346	-134,2
     43,4164	  0,00554819	-135,0
     43,4186	  0,00544026	-137,1
     43,4208	   0,0054175	-137,5
      43,423	   0,0054117	-134,5
     43,4252	  0,00549564	-133,8
     43,4274	  0,00541881	-138,2
     43,4296	  0,00538596	-136,1
     43,4318	  0,00536148	-133,7
      43,434	  0,00533719	-130,7
     43,4362	  0,00536997	-131,7
     43,4384	   0,0052838	-135,2
     43,4406	  0,00530085	-135,3
     43,4428	  0,00523695	-129,4
      43,445	  0,00526005	-130,7
     43,4472	  0,00518154	-137,7
     43,4494	  0,00519123	-135,0
     43,4516	  0,00513392	-131,7
     43,4538	  0,00517091	-130,2
      43,456	  0,00520693	-134,6
     43,4582	  0,00521505	-135,4
     43,4604	   0,0051545	-133,8
     43,4626	  0,00515356	-131,5
     43,4648	  0,00514195	-134,1
      43,467	  0,00512959	-135,3
     43,4692	  0,00503559	-132,9
     43,4714	  0,00508659	-134,1
     43,4736	  0,00505532	-131,9
     43,4758	   0,0051743	-134,5
      43,478	  0,00516878	-136,3
     43,4802	   0,0051036	-135,7
     43,4824	  0,00503005	-132,4
     43,4846	  0,00501343	-135,7
     43,4868	  0,00505022	-136,6
      43,489	  0,00502652	-131,6
     43,4912	  0,00500882	-131,0
     43,4934	  0,00500283	-133,6
     43,4956	  0,00492651	-138,0
     43,4978	  0,00486948	-131,5
        43,5	  0,00478214	-132,4

