X-Data [Hz]	Piezo (M - Filtered) [mV]	Phase [Deg]	
	002: [07-01-24 18:23]	
        33,5	     1897,26	-64,3
      33,502	     2081,13	-63,8
     33,5039	     2070,73	-66,2
     33,5059	     2148,77	-63,8
     33,5078	     2114,79	-65,8
     33,5098	     2110,19	-65,8
     33,5117	      2175,7	-62,8
     33,5137	     2125,24	-66,1
     33,5156	     2118,93	-65,4
     33,5176	     2186,35	-63,3
     33,5196	     2152,01	-65,9
     33,5215	     2156,34	-63,4
     33,5235	     2196,49	-63,0
     33,5254	     2192,31	-63,8
     33,5274	     2153,66	-65,5
     33,5293	     2229,14	-62,8
     33,5313	     2182,37	-66,1
     33,5332	     2149,81	-64,4
     33,5352	     2210,91	-62,1
     33,5371	      2160,7	-65,0
     33,5391	      2223,2	-62,2
     33,5411	     2226,17	-64,2
      33,543	     2184,24	-64,9
      33,545	     2226,49	-61,5
     33,5469	     2248,39	-61,7
     33,5489	     2210,61	-65,4
     33,5508	     2202,72	-63,8
     33,5528	     2260,66	-62,5
     33,5547	     2216,27	-64,7
     33,5567	     2225,41	-62,9
     33,5587	     2279,28	-62,0
     33,5606	     2216,83	-64,6
     33,5626	     2254,39	-61,7
     33,5645	     2265,74	-64,1
     33,5665	      2242,1	-64,0
     33,5684	     2248,06	-61,9
     33,5704	     2291,06	-62,9
     33,5723	     2251,79	-64,0
     33,5743	     2273,75	-60,8
     33,5762	     2320,98	-63,0
     33,5782	     2253,28	-63,8
     33,5802	     2287,77	-60,4
     33,5821	     2311,54	-61,4
     33,5841	     2327,82	-61,7
      33,586	     2271,27	-63,0
      33,588	     2336,08	-61,0
     33,5899	     2315,81	-62,3
     33,5919	     2294,79	-64,2
     33,5938	     2304,75	-60,9
     33,5958	     2342,98	-62,2
     33,5978	     2311,23	-62,4
     33,5997	     2346,64	-60,1
     33,6017	     2369,22	-59,8
     33,6036	     2302,77	-62,5
     33,6056	     2365,64	-60,5
     33,6075	     2362,82	-60,8
     33,6095	     2323,64	-61,9
     33,6114	     2358,32	-59,6
     33,6134	     2359,29	-61,3
     33,6153	     2332,16	-62,5
     33,6173	     2363,94	-60,8
     33,6193	     2406,74	-61,5
     33,6212	      2327,7	-61,7
     33,6232	     2361,52	-61,9
     33,6251	     2377,56	-60,1
     33,6271	     2418,79	-59,8
      33,629	     2365,73	-61,5
      33,631	     2420,95	-59,6
     33,6329	        2428	-60,3
     33,6349	     2402,66	-61,7
     33,6369	     2413,58	-59,2
     33,6388	     2445,93	-59,5
     33,6408	     2459,31	-59,8
     33,6427	     2415,99	-61,1
     33,6447	     2444,78	-59,2
     33,6466	     2438,78	-60,4
     33,6486	      2418,6	-60,0
     33,6505	     2494,77	-57,8
     33,6525	     2463,05	-61,4
     33,6544	     2400,06	-60,7
     33,6564	     2473,77	-57,7
     33,6584	     2465,88	-60,6
     33,6603	     2480,96	-58,7
     33,6623	     2521,36	-58,0
     33,6642	     2480,11	-59,9
     33,6662	     2468,02	-58,5
     33,6681	     2536,86	-57,6
     33,6701	     2521,44	-57,7
      33,672	     2466,28	-60,0
      33,674	     2513,45	-57,2
      33,676	     2547,71	-58,0
     33,6779	      2499,6	-59,8
     33,6799	     2536,97	-57,2
     33,6818	     2585,55	-57,6
     33,6838	     2516,63	-58,6
     33,6857	     2519,14	-58,9
     33,6877	     2544,47	-57,1
     33,6896	      2544,6	-58,0
     33,6916	     2561,97	-59,0
     33,6936	     2532,81	-58,5
     33,6955	     2549,97	-56,7
     33,6975	     2587,43	-57,0
     33,6994	     2543,31	-58,3
     33,7014	     2558,39	-56,9
     33,7033	     2622,43	-55,2
     33,7053	     2619,27	-55,9
     33,7072	     2607,63	-56,9
     33,7092	     2566,75	-57,1
     33,7111	     2615,14	-55,0
     33,7131	     2644,32	-55,1
     33,7151	     2632,11	-57,2
      33,717	      2593,5	-57,2
      33,719	      2586,8	-57,2
     33,7209	     2636,13	-55,5
     33,7229	     2664,22	-54,9
     33,7248	     2673,07	-56,1
     33,7268	     2615,04	-56,7
     33,7287	     2697,52	-54,7
     33,7307	     2654,41	-56,9
     33,7327	     2610,52	-56,5
     33,7346	      2625,7	-55,0
     33,7366	     2694,95	-54,3
     33,7385	     2684,01	-54,1
     33,7405	     2673,79	-56,0
     33,7424	     2667,98	-56,4
     33,7444	     2718,69	-54,6
     33,7463	     2712,98	-54,9
     33,7483	     2689,04	-55,7
     33,7502	     2687,51	-54,6
     33,7522	     2752,59	-53,7
     33,7542	     2696,79	-56,4
     33,7561	     2701,88	-54,2
     33,7581	     2744,24	-53,7
       33,76	     2696,05	-54,9
      33,762	     2729,72	-54,7
     33,7639	     2759,75	-53,5
     33,7659	     2777,72	-52,6
     33,7678	     2741,84	-55,5
     33,7698	     2736,97	-54,1
     33,7718	     2791,07	-52,9
     33,7737	     2764,42	-54,1
     33,7757	     2740,23	-54,8
     33,7776	        2805	-52,7
     33,7796	     2806,58	-52,3
     33,7815	     2776,04	-53,8
     33,7835	     2751,07	-54,0
     33,7854	        2771	-53,8
     33,7874	     2792,34	-52,3
     33,7893	     2835,77	-51,9
     33,7913	     2817,86	-53,9
     33,7933	     2808,52	-52,8
     33,7952	     2834,26	-51,3
     33,7972	        2869	-51,7
     33,7991	     2811,69	-54,0
     33,8011	      2821,8	-52,5
      33,803	     2857,73	-51,0
      33,805	      2869,9	-50,6
     33,8069	      2875,8	-51,7
     33,8089	     2836,99	-52,2
     33,8109	     2890,95	-50,0
     33,8128	     2885,14	-51,9
     33,8148	     2869,02	-51,9
     33,8167	     2856,83	-51,5
     33,8187	     2883,89	-51,4
     33,8206	     2920,29	-50,1
     33,8226	     2926,73	-50,8
     33,8245	     2935,97	-50,9
     33,8265	     2901,61	-50,9
     33,8284	     2889,87	-51,2
     33,8304	     2934,61	-49,7
     33,8324	     2959,42	-50,8
     33,8343	     2926,47	-51,0
     33,8363	     2912,56	-50,5
     33,8382	     2980,64	-49,2
     33,8402	     2987,99	-49,3
     33,8421	     2993,75	-48,9
     33,8441	     2987,83	-49,3
      33,846	     2970,66	-49,6
      33,848	     2941,82	-50,1
       33,85	     2984,87	-48,2
     33,8519	     3009,03	-47,9
     33,8539	     3004,95	-49,3
     33,8558	     2959,77	-49,4
     33,8578	      3008,2	-48,3
     33,8597	     3014,78	-47,7
     33,8617	     3050,04	-47,5
     33,8636	     3041,03	-48,1
     33,8656	     3002,46	-48,5
     33,8675	     3002,83	-49,3
     33,8695	      3044,3	-47,2
     33,8715	     3062,27	-46,8
     33,8734	     3067,09	-47,7
     33,8754	      3027,1	-48,6
     33,8773	     3030,45	-48,2
     33,8793	     3077,27	-46,8
     33,8812	     3098,78	-47,2
     33,8832	     3088,68	-46,7
     33,8851	     3066,61	-48,3
     33,8871	      3053,4	-47,9
     33,8891	     3074,32	-46,5
      33,891	     3109,26	-45,2
      33,893	     3120,21	-46,6
     33,8949	     3138,35	-45,3
     33,8969	     3128,74	-47,1
     33,8988	     3113,89	-46,7
     33,9008	     3101,46	-46,1
     33,9027	     3155,32	-44,9
     33,9047	     3160,89	-45,4
     33,9066	     3145,65	-46,2
     33,9086	     3119,46	-46,0
     33,9106	     3183,96	-45,4
     33,9125	     3139,62	-45,1
     33,9145	     3187,26	-44,4
     33,9164	     3203,07	-43,9
     33,9184	     3150,76	-46,0
     33,9203	     3154,31	-45,9
     33,9223	      3166,5	-44,4
     33,9242	     3161,94	-45,0
     33,9262	     3221,84	-43,7
     33,9282	     3229,09	-44,7
     33,9301	     3182,46	-45,0
     33,9321	     3156,74	-44,3
      33,934	     3254,89	-43,2
      33,936	     3234,95	-43,9
     33,9379	     3188,94	-44,5
     33,9399	      3189,5	-44,7
     33,9418	     3255,86	-41,9
     33,9438	     3285,01	-41,6
     33,9457	     3281,81	-43,5
     33,9477	     3267,43	-44,3
     33,9497	      3228,1	-43,4
     33,9516	      3246,8	-43,7
     33,9536	     3273,55	-42,6
     33,9555	     3289,13	-42,4
     33,9575	     3322,06	-41,0
     33,9594	     3303,79	-42,6
     33,9614	     3292,43	-42,9
     33,9633	     3309,27	-42,5
     33,9653	     3281,95	-42,9
     33,9673	     3316,81	-42,5
     33,9692	     3362,42	-40,9
     33,9712	     3358,84	-41,1
     33,9731	     3331,26	-42,3
     33,9751	     3330,16	-42,0
      33,977	     3340,95	-41,5
      33,979	     3392,96	-40,5
     33,9809	     3362,62	-40,4
     33,9829	     3372,72	-40,1
     33,9848	     3393,28	-38,8
     33,9868	     3398,19	-40,3
     33,9888	     3375,56	-40,9
     33,9907	     3389,54	-39,7
     33,9927	     3407,35	-39,6
     33,9946	     3443,06	-39,6
     33,9966	     3404,84	-40,1
     33,9985	     3415,08	-40,6
     34,0005	     3414,31	-40,1
     34,0024	      3393,4	-39,5
     34,0044	     3313,11	-40,1
     34,0064	     3437,86	-39,1
     34,0083	     3462,78	-39,3
     34,0103	     3429,41	-40,6
     34,0122	     3448,37	-39,9
     34,0142	     3463,08	-38,0
     34,0161	     3496,25	-37,1
     34,0181	     3517,72	-37,7
       34,02	     3454,68	-30,7
      34,022	     3777,26	-35,7
     34,0239	     3600,46	-38,2
     34,0259	     3521,21	-38,4
     34,0279	        3539	-37,3
     34,0298	     3552,06	-36,0
     34,0318	      3555,7	-37,7
     34,0337	     3517,15	-37,7
     34,0357	      3559,6	-36,5
     34,0376	      3567,2	-37,3
     34,0396	     3556,76	-37,0
     34,0415	     3562,47	-36,5
     34,0435	     3601,44	-35,7
     34,0455	     3628,51	-35,3
     34,0474	     3623,37	-36,7
     34,0494	      3620,6	-35,7
     34,0513	     3591,23	-36,4
     34,0533	     3614,25	-35,5
     34,0552	     3588,74	-36,6
     34,0572	     3592,08	-35,8
     34,0591	     3607,96	-35,3
     34,0611	     3658,91	-34,4
      34,063	      3678,3	-34,3
      34,065	     3665,19	-34,6
      34,067	     3633,17	-35,6
     34,0689	     3625,04	-34,6
     34,0709	     3675,58	-33,6
     34,0728	     3655,96	-34,8
     34,0748	        3678	-34,0
     34,0767	     3681,71	-33,1
     34,0787	     3671,89	-33,0
     34,0806	     3688,83	-33,9
     34,0826	     3690,37	-34,6
     34,0846	     3709,59	-33,0
     34,0865	     3748,44	-32,2
     34,0885	     3709,76	-33,2
     34,0904	     3749,03	-32,7
     34,0924	     3768,92	-31,7
     34,0943	     3784,43	-31,7
     34,0963	     3773,51	-32,4
     34,0982	      3774,2	-33,0
     34,1002	     3749,77	-33,0
     34,1021	     3772,75	-32,8
     34,1041	     3811,81	-31,4
     34,1061	     3794,16	-31,7
      34,108	      3846,9	-30,0
       34,11	     3835,05	-30,7
     34,1119	     3827,99	-31,7
     34,1139	     3830,25	-31,6
     34,1158	     3863,22	-31,2
     34,1178	     3872,64	-30,6
     34,1197	     3894,54	-29,6
     34,1217	      3843,2	-29,6
     34,1237	     3881,12	-29,7
     34,1256	     3863,18	-30,2
     34,1276	     3845,92	-30,5
     34,1295	     3863,67	-30,3
     34,1315	     3865,38	-30,5
     34,1334	     3882,33	-29,5
     34,1354	     3927,71	-27,7
     34,1373	     3965,88	-27,6
     34,1393	     3970,85	-26,9
     34,1413	     3967,93	-28,0
     34,1432	     3923,13	-29,1
     34,1452	     3924,65	-28,8
     34,1471	     3944,57	-28,3
     34,1491	     3943,95	-28,5
      34,151	     3955,57	-27,5
      34,153	     3989,04	-26,7
     34,1549	     4017,31	-26,6
     34,1569	     4004,73	-25,9
     34,1588	     4007,48	-25,8
     34,1608	     4024,82	-25,8
     34,1628	     4063,56	-25,8
     34,1647	     4040,08	-26,0
     34,1667	     4039,81	-25,6
     34,1686	     4016,87	-26,0
     34,1706	     4009,07	-26,4
     34,1725	     4012,22	-26,3
     34,1745	     4047,49	-25,5
     34,1764	     4105,57	-24,0
     34,1784	     4093,91	-24,4
     34,1804	     4086,85	-24,8
     34,1823	     4083,14	-24,6
     34,1843	     4131,68	-23,6
     34,1862	     4104,19	-24,7
     34,1882	     4091,65	-24,0
     34,1901	     4107,79	-24,3
     34,1921	     4110,65	-23,8
      34,194	     4121,79	-23,2
      34,196	     4161,37	-23,2
     34,1979	     4165,54	-22,4
     34,1999	     4179,68	-21,9
     34,2019	     4161,84	-21,6
     34,2038	     4190,36	-21,4
     34,2058	     4198,25	-22,1
     34,2077	     4204,16	-21,6
     34,2097	     4209,18	-21,8
     34,2116	     4197,64	-22,0
     34,2136	     4195,43	-22,4
     34,2155	     4199,91	-22,6
     34,2175	     4188,86	-20,2
     34,2195	     4201,94	-20,1
     34,2214	     4246,94	-19,3
     34,2234	     4252,27	-19,6
     34,2253	     4306,01	-19,3
     34,2273	     4282,35	-19,3
     34,2292	     4283,18	-20,1
     34,2312	     4260,73	-19,5
     34,2331	     4275,17	-19,2
     34,2351	     4318,31	-18,4
      34,237	      4322,4	-18,1
      34,239	     4344,98	-17,6
      34,241	     4352,55	-17,7
     34,2429	     4340,36	-18,1
     34,2449	      4338,6	-17,8
     34,2468	     4341,65	-18,1
     34,2488	     4310,83	-18,3
     34,2507	     4359,06	-17,6
     34,2527	     4368,52	-16,6
     34,2546	     4354,79	-17,1
     34,2566	     4368,13	-17,7
     34,2586	     4367,48	-16,7
     34,2605	     4380,44	-16,6
     34,2625	     4377,09	-15,7
     34,2644	     4397,66	-15,7
     34,2664	     4392,28	-15,4
     34,2683	     4437,45	-15,2
     34,2703	      4459,4	-14,5
     34,2722	     4466,94	-13,5
     34,2742	      4463,2	-13,3
     34,2761	     4462,73	-14,0
     34,2781	     4462,33	-13,8
     34,2801	     4451,15	-14,1
      34,282	      4435,1	-13,9
      34,284	     4436,18	-13,6
     34,2859	     4455,75	-13,9
     34,2879	     4467,33	-12,8
     34,2898	     4513,52	-10,9
     34,2918	     4515,48	-12,4
     34,2937	     4505,84	-11,5
     34,2957	     4476,07	-12,6
     34,2977	     4481,22	-12,1
     34,2996	        4532	-11,9
     34,3016	     4506,77	-11,2
     34,3035	     4490,28	-11,4
     34,3055	      4496,2	-11,6
     34,3074	     4514,24	-10,9
     34,3094	     4534,06	-10,8
     34,3113	     4530,71	-10,1
     34,3133	     4554,27	-9,7
     34,3153	     4548,08	-8,9
     34,3172	     4581,72	-8,9
     34,3192	     4593,67	-7,9
     34,3211	     4575,26	-8,3
     34,3231	     4598,93	-8,3
      34,325	     4603,73	-7,4
      34,327	     4607,42	-7,1
     34,3289	     4594,09	-7,6
     34,3309	     4620,49	-6,8
     34,3328	     4623,48	-6,6
     34,3348	     4603,58	-6,8
     34,3368	     4619,27	-6,6
     34,3387	     4620,23	-5,8
     34,3407	     4633,43	-5,7
     34,3426	     4630,04	-5,9
     34,3446	     4620,95	-6,3
     34,3465	      4617,6	-5,4
     34,3485	     4609,66	-6,0
     34,3504	     4620,81	-5,2
     34,3524	     4629,63	-5,4
     34,3544	     4626,83	-5,3
     34,3563	     4617,57	-5,0
     34,3583	     4640,03	-4,4
     34,3602	     4654,32	-4,0
     34,3622	     4625,82	-3,8
     34,3641	      4645,1	-4,2
     34,3661	     4638,94	-3,4
      34,368	     4643,58	-3,2
       34,37	     4652,22	-2,5
     34,3719	     4634,46	-3,0
     34,3739	     4685,21	-2,2
     34,3759	     4706,21	-1,2
     34,3778	     4687,46	-0,9
     34,3798	     4668,53	-1,2
     34,3817	     4682,65	-1,4
     34,3837	     4706,96	-0,7
     34,3856	     4711,71	 0,1
     34,3876	     4709,21	 0,3
     34,3895	     4685,34	 0,0
     34,3915	     4679,27	 0,3
     34,3935	     4654,85	-0,3
     34,3954	     4659,71	 0,2
     34,3974	     4657,25	 0,2
     34,3993	     4653,67	 0,7
     34,4013	     4653,04	 1,2
     34,4032	     4668,58	 1,5
     34,4052	     4659,82	 1,2
     34,4071	     4683,52	 1,8
     34,4091	     4683,96	 2,6
      34,411	     4676,65	 2,7
      34,413	     4660,67	 2,6
      34,415	     4674,05	 3,4
     34,4169	     4676,56	 2,9
     34,4189	     4680,46	 3,4
     34,4208	     4684,43	 4,0
     34,4228	     4694,04	 4,1
     34,4247	     4696,82	 4,1
     34,4267	     4686,06	 4,9
     34,4286	     4687,47	 4,8
     34,4306	      4712,8	 5,4
     34,4326	     4674,75	 5,0
     34,4345	     4680,93	 5,6
     34,4365	     4662,69	 4,9
     34,4384	     4667,02	 6,1
     34,4404	     4666,25	 6,2
     34,4423	     4676,51	 6,5
     34,4443	     4721,74	 7,8
     34,4462	     4712,96	 7,4
     34,4482	     4708,59	 8,1
     34,4501	     4719,85	 7,8
     34,4521	     4723,37	 8,5
     34,4541	     4720,69	 8,8
      34,456	     4709,34	 9,5
      34,458	     4712,06	 9,1
     34,4599	     4696,89	 9,1
     34,4619	     4687,22	 9,5
     34,4638	     4685,93	 9,2
     34,4658	     4685,02	10,1
     34,4677	     4687,19	10,4
     34,4697	     4699,72	10,3
     34,4717	     4670,15	10,3
     34,4736	     4700,79	10,8
     34,4756	     4691,29	10,9
     34,4775	     4644,59	10,3
     34,4795	     4631,81	10,9
     34,4814	     4641,69	11,3
     34,4834	     4642,18	11,2
     34,4853	      4638,4	11,4
     34,4873	     4620,44	11,5
     34,4892	     4636,15	12,0
     34,4912	     4630,96	12,7
     34,4932	     4626,24	12,5
     34,4951	     4673,25	13,9
     34,4971	     4654,98	13,8
      34,499	     4665,01	14,4
      34,501	      4674,2	14,2
     34,5029	     4663,66	15,2
     34,5049	     4659,78	15,2
     34,5068	      4665,6	15,3
     34,5088	     4648,54	15,2
     34,5108	     4635,07	15,6
     34,5127	     4619,23	14,9
     34,5147	     4559,68	15,4
     34,5166	     4548,89	15,3
     34,5186	     4583,05	16,2
     34,5205	     4588,62	15,2
     34,5225	     4550,45	15,8
     34,5244	     4551,14	16,5
     34,5264	     4552,98	16,3
     34,5283	     4583,12	17,2
     34,5303	     4593,18	17,4
     34,5323	     4584,39	18,1
     34,5342	     4587,86	17,9
     34,5362	     4597,23	18,4
     34,5381	     4581,24	18,9
     34,5401	     4571,03	19,0
      34,542	     4556,13	19,6
      34,544	     4580,79	19,4
     34,5459	     4541,85	18,9
     34,5479	     4480,79	19,0
     34,5499	     4484,16	19,0
     34,5518	     4496,79	19,4
     34,5538	     4489,52	19,9
     34,5557	      4480,1	19,6
     34,5577	     4476,27	20,9
     34,5596	     4475,99	19,9
     34,5616	     4462,13	20,5
     34,5635	     4454,63	20,9
     34,5655	     4450,86	20,5
     34,5674	     4451,83	21,2
     34,5694	     4480,27	22,0
     34,5714	     4475,33	22,6
     34,5733	     4475,98	22,1
     34,5753	     4484,61	23,1
     34,5772	     4479,34	23,1
     34,5792	     4477,97	23,4
     34,5811	     4437,98	23,2
     34,5831	     4444,33	23,0
      34,585	     4447,28	23,6
      34,587	     4412,76	23,2
      34,589	     4383,72	22,3
     34,5909	     4368,76	23,1
     34,5929	     4387,06	23,2
     34,5948	     4366,94	24,1
     34,5968	     4362,63	23,5
     34,5987	     4346,95	24,4
     34,6007	     4307,61	23,6
     34,6026	      4346,2	24,7
     34,6046	     4359,32	25,0
     34,6065	     4345,55	25,5
     34,6085	     4333,39	25,3
     34,6105	     4374,22	26,7
     34,6124	     4337,65	26,3
     34,6144	     4350,55	26,3
     34,6163	     4309,82	26,3
     34,6183	     4306,14	26,0
     34,6202	     4293,15	26,7
     34,6222	      4327,7	27,8
     34,6241	     4325,04	27,9
     34,6261	     4315,45	28,7
     34,6281	     4323,27	27,8
       34,63	     4309,05	28,5
      34,632	        4279	28,1
     34,6339	     4278,02	28,5
     34,6359	        4259	28,9
     34,6378	     4229,08	28,5
     34,6398	     4226,46	28,7
     34,6417	     4228,02	28,5
     34,6437	     4239,89	29,2
     34,6456	     4238,36	29,7
     34,6476	     4246,61	29,9
     34,6496	     4231,46	30,2
     34,6515	      4219,1	30,4
     34,6535	     4185,69	29,8
     34,6554	     4177,99	29,8
     34,6574	      4181,2	31,5
     34,6593	     4179,75	30,9
     34,6613	     4184,61	31,3
     34,6632	     4170,51	31,4
     34,6652	     4155,41	31,4
     34,6672	     4111,26	30,9
     34,6691	     4120,45	30,4
     34,6711	     4105,69	31,3
      34,673	     4118,33	32,1
      34,675	     4105,74	32,0
     34,6769	     4121,69	32,4
     34,6789	     4120,43	33,3
     34,6808	      4102,7	33,3
     34,6828	     4069,48	32,9
     34,6847	     4053,86	32,5
     34,6867	     4068,85	32,7
     34,6887	      4049,2	33,0
     34,6906	      4047,4	34,0
     34,6926	     4053,82	34,0
     34,6945	     4047,39	34,1
     34,6965	     4027,77	33,4
     34,6984	     4024,95	34,2
     34,7004	     4029,78	33,8
     34,7023	     3987,69	34,3
     34,7043	     3995,35	34,8
     34,7063	     4006,49	34,8
     34,7082	     3995,95	35,4
     34,7102	     3974,95	35,3
     34,7121	     3970,23	35,8
     34,7141	     3979,17	35,3
      34,716	     3969,84	35,9
      34,718	     3928,73	35,5
     34,7199	     3908,19	34,6
     34,7219	     3908,84	35,6
     34,7239	     3928,72	36,6
     34,7258	     3924,07	36,5
     34,7278	     3926,89	37,1
     34,7297	     3874,08	36,5
     34,7317	     3865,27	35,9
     34,7336	     3854,32	36,9
     34,7356	     3861,26	36,4
     34,7375	        3890	37,5
     34,7395	     3860,56	37,2
     34,7414	     3848,62	37,7
     34,7434	     3857,72	37,6
     34,7454	     3813,72	37,3
     34,7473	     3817,42	37,9
     34,7493	     3822,22	38,2
     34,7512	     3799,03	37,6
     34,7532	     3793,82	37,7
     34,7551	     3780,46	37,7
     34,7571	        3768	38,2
      34,759	      3799,3	39,4
      34,761	     3802,12	39,3
      34,763	     3805,25	39,1
     34,7649	     3786,67	39,7
     34,7669	     3730,88	39,1
     34,7688	      3734,9	39,3
     34,7708	     3740,95	40,0
     34,7727	     3727,55	39,6
     34,7747	     3730,86	39,8
     34,7766	     3740,36	40,7
     34,7786	        3734	40,5
     34,7805	     3709,61	40,9
     34,7825	     3688,05	40,4
     34,7845	     3656,59	40,1
     34,7864	     3681,91	41,2
     34,7884	     3689,33	41,7
     34,7903	     3677,75	41,1
     34,7923	     3672,24	41,1
     34,7942	     3642,61	41,4
     34,7962	     3613,24	41,2
     34,7981	     3589,45	41,0
     34,8001	     3629,88	42,2
     34,8021	     3596,16	42,2
      34,804	     3573,62	41,9
      34,806	     3564,36	41,3
     34,8079	     3560,87	41,8
     34,8099	     3594,97	42,3
     34,8118	     3610,45	42,6
     34,8138	     3554,64	42,2
     34,8157	     3549,22	42,5
     34,8177	     3559,78	43,4
     34,8196	     3560,92	43,7
     34,8216	     3558,09	43,8
     34,8236	     3558,31	43,1
     34,8255	     3518,22	43,2
     34,8275	     3506,68	43,0
     34,8294	     3500,67	43,2
     34,8314	     3480,86	43,9
     34,8333	     3447,62	43,8
     34,8353	     3486,15	43,6
     34,8372	     3504,97	44,3
     34,8392	     3498,72	44,6
     34,8412	     3457,56	43,9
     34,8431	     3431,29	43,3
     34,8451	     3444,56	44,0
      34,847	     3425,69	44,9
      34,849	      3464,6	44,9
     34,8509	     3431,67	44,8
     34,8529	     3421,69	45,3
     34,8548	     3434,56	45,4
     34,8568	     3424,73	45,1
     34,8587	     3408,73	45,1
     34,8607	     3344,35	45,1
     34,8627	     3362,45	45,4
     34,8646	     3395,26	46,7
     34,8666	     3354,39	45,5
     34,8685	     3346,71	45,8
     34,8705	     3330,23	45,9
     34,8724	     3332,92	46,1
     34,8744	     3355,93	46,7
     34,8763	     3359,92	46,2
     34,8783	     3350,48	46,7
     34,8803	     3312,99	46,8
     34,8822	     3275,78	46,8
     34,8842	     3259,33	46,0
     34,8861	     3280,63	47,0
     34,8881	     3282,47	47,2
       34,89	     3262,85	47,1
      34,892	     3281,99	47,5
     34,8939	     3292,93	47,8
     34,8959	     3282,93	47,7
     34,8979	     3269,15	47,1
     34,8998	     3231,71	46,6
     34,9018	     3252,87	47,4
     34,9037	     3252,11	48,5
     34,9057	     3263,43	48,2
     34,9076	     3201,74	47,9
     34,9096	     3183,84	47,7
     34,9115	     3186,15	48,1
     34,9135	     3212,02	48,3
     34,9154	     3205,45	48,4
     34,9174	     3176,44	48,2
     34,9194	     3192,78	49,1
     34,9213	     3193,98	49,3
     34,9233	     3175,99	48,6
     34,9252	     3144,15	48,5
     34,9272	     3140,39	49,3
     34,9291	     3128,61	48,4
     34,9311	        3105	48,6
      34,933	     3147,85	49,8
      34,935	      3132,4	49,7
      34,937	      3145,5	50,0
     34,9389	     3100,59	48,9
     34,9409	     3080,77	50,0
     34,9428	     3099,16	50,4
     34,9448	     3109,42	50,7
     34,9467	     3090,01	50,1
     34,9487	     3050,25	50,0
     34,9506	     3082,01	50,4
     34,9526	     3049,36	49,5
     34,9545	     3030,25	49,9
     34,9565	     3056,27	51,2
     34,9585	     3060,63	51,7
     34,9604	      3030,8	49,9
     34,9624	     3002,14	50,1
     34,9643	     3042,09	50,8
     34,9663	     3033,96	51,2
     34,9682	     2974,51	50,7
     34,9702	     2989,94	50,9
     34,9721	     3008,46	51,6
     34,9741	     2982,65	50,9
     34,9761	     2953,83	50,9
      34,978	     2945,16	50,6
       34,98	     2995,55	51,5
     34,9819	     2962,24	52,3
     34,9839	     2940,22	51,4
     34,9858	     2918,01	51,2
     34,9878	     2947,41	51,6
     34,9897	     2972,22	51,9
     34,9917	     2904,35	51,7
     34,9936	     2949,21	52,5
     34,9956	     2927,91	52,9
     34,9976	     2905,89	51,7
     34,9995	     2869,95	52,0
     35,0015	     2911,67	52,8
     35,0034	     2908,55	51,9
     35,0054	     2910,77	53,0
     35,0073	     2874,06	53,2
     35,0093	     2852,17	53,0
     35,0112	     2851,08	51,4
     35,0132	     2862,49	53,3
     35,0152	     2849,32	51,9
     35,0171	     2819,79	53,5
     35,0191	     2830,79	52,7
      35,021	     2870,09	53,7
      35,023	     2846,86	53,0
     35,0249	     2786,53	52,6
     35,0269	     2809,69	53,5
     35,0288	     2839,13	53,7
     35,0308	     2794,91	53,6
     35,0327	     2777,72	52,7
     35,0347	     2813,46	54,5
     35,0367	     2804,72	54,6
     35,0386	     2774,04	53,6
     35,0406	     2757,14	53,0
     35,0425	     2775,67	54,5
     35,0445	     2751,09	53,5
     35,0464	     2733,89	54,2
     35,0484	     2770,02	55,1
     35,0503	     2771,03	54,4
     35,0523	     2698,14	53,9
     35,0543	     2740,14	54,7
     35,0562	     2727,47	54,3
     35,0582	     2694,68	54,3
     35,0601	     2706,02	54,1
     35,0621	     2728,74	55,3
      35,064	     2724,59	55,4
      35,066	     2664,59	54,2
     35,0679	     2676,54	54,6
     35,0699	     2703,86	54,6
     35,0718	     2690,94	54,4
     35,0738	     2674,47	55,0
     35,0758	     2696,92	55,7
     35,0777	     2668,57	55,7
     35,0797	     2635,88	55,1
     35,0816	     2656,56	55,7
     35,0836	     2682,02	55,6
     35,0855	     2643,38	55,8
     35,0875	     2608,03	55,2
     35,0894	     2664,46	56,1
     35,0914	     2620,27	55,7
     35,0934	     2583,64	55,4
     35,0953	     2617,55	55,4
     35,0973	     2637,16	56,8
     35,0992	     2630,93	56,4
     35,1012	     2588,81	56,1
     35,1031	     2578,74	55,7
     35,1051	     2585,15	56,4
      35,107	        2604	56,6
      35,109	      2583,8	55,8
     35,1109	     2586,15	56,9
     35,1129	      2584,3	57,0
     35,1149	     2534,42	55,8
     35,1168	     2535,54	56,0
     35,1188	     2561,71	56,6
     35,1207	     2580,48	57,3
     35,1227	     2515,62	57,2
     35,1246	     2514,12	56,7
     35,1266	     2533,92	56,6
     35,1285	     2540,37	57,0
     35,1305	      2512,2	57,0
     35,1325	     2547,82	57,8
     35,1344	     2526,27	58,1
     35,1364	        2495	57,0
     35,1383	     2494,39	57,6
     35,1403	     2504,96	57,6
     35,1422	     2468,78	57,3
     35,1442	     2515,18	57,3
     35,1461	      2494,8	58,0
     35,1481	     2457,94	57,0
       35,15	     2490,32	57,8
      35,152	     2465,64	58,5
      35,154	     2451,81	57,0
     35,1559	     2465,22	58,3
     35,1579	     2447,43	57,5
     35,1598	     2425,62	57,5
     35,1618	     2473,24	58,8
     35,1637	     2438,91	57,3
     35,1657	      2398,2	57,5
     35,1676	     2399,15	56,7
     35,1696	     2444,53	58,3
     35,1716	     2432,92	58,6
     35,1735	     2400,72	58,0
     35,1755	     2389,75	57,7
     35,1774	     2370,96	58,2
     35,1794	     2394,88	58,3
     35,1813	      2405,5	59,1
     35,1833	     2413,15	59,5
     35,1852	     2374,99	59,4
     35,1872	     2361,49	58,0
     35,1891	     2366,54	57,8
     35,1911	     2384,28	59,1
     35,1931	     2347,17	58,5
      35,195	     2346,72	58,9
      35,197	      2366,4	59,5
     35,1989	     2315,27	58,4
     35,2009	     2378,89	59,9
     35,2028	     2332,54	58,1
     35,2048	     2325,71	58,2
     35,2067	     2324,69	59,0
     35,2087	     2354,71	59,6
     35,2107	     2315,29	58,8
     35,2126	     2332,71	59,0
     35,2146	     2264,64	59,6
     35,2165	     2330,38	59,2
     35,2185	     2301,84	60,1
     35,2204	     2270,36	58,8
     35,2224	     2303,49	60,1
     35,2243	     2284,05	59,6
     35,2263	     2255,17	58,4
     35,2282	     2284,64	59,7
     35,2302	     2287,64	60,0
     35,2322	     2260,05	59,1
     35,2341	     2260,53	59,9
     35,2361	     2300,27	60,7
      35,238	     2245,24	60,0
       35,24	     2272,53	59,9
     35,2419	     2234,95	59,3
     35,2439	     2235,56	60,0
     35,2458	     2270,14	60,3
     35,2478	     2236,94	60,4
     35,2498	     2205,94	59,6
     35,2517	        2250	60,5
     35,2537	     2207,35	60,1
     35,2556	     2242,45	61,2
     35,2576	     2206,97	60,3
     35,2595	     2179,13	60,1
     35,2615	     2225,12	61,2
     35,2634	     2177,78	60,3
     35,2654	     2218,25	61,5
     35,2673	     2166,64	60,7
     35,2693	     2176,85	60,7
     35,2713	     2216,91	61,6
     35,2732	     2152,59	60,7
     35,2752	     2189,31	60,9
     35,2771	     2140,54	61,1
     35,2791	     2152,16	60,5
      35,281	     2185,35	61,4
      35,283	     2172,85	60,7
     35,2849	        2077	60,5
     35,2869	     2171,73	60,9
     35,2889	     2157,87	61,7
     35,2908	     2117,78	60,6
     35,2928	     2184,83	62,4
     35,2947	     2106,28	60,9
     35,2967	      2152,4	60,7
     35,2986	     2116,48	60,2
     35,3006	      2124,4	61,2
     35,3025	     2114,33	61,6
     35,3045	     2121,29	61,4
     35,3064	     2076,59	62,3
     35,3084	      2116,6	59,8
     35,3104	     2107,33	61,3
     35,3123	     2104,39	62,6
     35,3143	     2050,72	60,6
     35,3162	     2099,04	61,7
     35,3182	     2112,11	61,9
     35,3201	     2052,39	60,6
     35,3221	     2109,69	62,5
      35,324	     1999,04	60,8
      35,326	     2106,76	61,4
      35,328	     2081,96	62,3
     35,3299	     2046,56	61,7
     35,3319	     2078,69	62,1
     35,3338	     1988,93	62,1
     35,3358	     2065,17	60,9
     35,3377	     2028,59	62,6
     35,3397	     1999,98	60,6
     35,3416	     2064,21	61,6
     35,3436	     2039,46	63,0
     35,3456	     2004,53	61,2
     35,3475	     2040,26	62,0
     35,3495	     2007,62	62,8
     35,3514	     2004,25	61,7
     35,3534	     2039,48	62,7
     35,3553	     1973,23	61,5
     35,3573	     2049,31	62,9
     35,3592	     1992,22	63,1
     35,3612	     1964,73	61,3
     35,3631	        1996	63,2
     35,3651	     1956,55	61,1
     35,3671	     1998,83	62,9
      35,369	      1947,8	61,4
      35,371	     1974,11	62,9
     35,3729	     1994,95	63,3
     35,3749	     1955,31	61,4
     35,3768	     1966,17	62,7
     35,3788	     1968,51	64,0
     35,3807	     1922,68	61,5
     35,3827	     1967,34	63,3
     35,3847	     1948,87	63,0
     35,3866	     1982,28	63,5
     35,3886	     1952,96	63,1
     35,3905	     1914,62	62,0
     35,3925	     1982,04	63,2
     35,3944	      1886,5	61,9
     35,3964	     1960,89	62,7
     35,3983	     1945,05	63,6
     35,4003	     1900,72	62,3
     35,4022	     1933,29	63,5
     35,4042	     1912,59	62,2
     35,4062	     1919,85	63,7
     35,4081	     1903,45	62,5
     35,4101	     1886,02	63,0
      35,412	      1924,5	63,3
      35,414	        1865	62,3
     35,4159	        1860	62,6
     35,4179	      1869,2	62,0
     35,4198	     1920,13	64,5
     35,4218	     1849,79	63,5
     35,4238	     1900,48	63,1
     35,4257	     1879,05	63,3
     35,4277	     1849,12	62,7
     35,4296	     1889,51	63,8
     35,4316	     1854,35	62,7
     35,4335	     1887,07	64,6
     35,4355	     1839,34	62,0
     35,4374	     1851,41	63,1
     35,4394	      1872,1	64,4
     35,4413	     1827,66	63,0
     35,4433	     1841,51	64,0
     35,4453	     1847,46	64,2
     35,4472	      1840,1	63,9
     35,4492	     1807,91	63,0
     35,4511	     1863,69	63,9
     35,4531	      1814,6	63,6
      35,455	     1806,32	64,0
      35,457	     1842,18	64,4
     35,4589	     1802,79	62,9
     35,4609	      1835,8	64,3
     35,4629	      1786,5	63,0
     35,4648	     1844,59	64,3
     35,4668	     1797,98	64,0
     35,4687	     1808,48	63,8
     35,4707	     1796,87	63,9
     35,4726	        1791	63,4
     35,4746	     1818,97	63,5
     35,4765	     1784,75	64,5
     35,4785	     1808,37	65,1
     35,4804	     1771,12	63,0
     35,4824	     1819,38	65,0
     35,4844	     1782,09	64,5
     35,4863	     1743,59	62,2
     35,4883	     1797,99	65,5
     35,4902	     1700,42	62,5
     35,4922	     1811,34	64,9
     35,4941	     1719,27	63,3
     35,4961	     1795,58	64,7
      35,498	     1736,41	63,2
        35,5	      1763,2	62,9

